,timestamps,Fp1,Fp2,C3,C4,P7,P8,O1,O2,stim
0,1592874739.87855,-168258.765625,-171822.8125,-172667.234375,-169242.796875,-187500.015625,-187500.015625,-187500.015625,-187500.015625,0.0
1,1592874739.878551,-168700.71875,-171826.53125,-172668.0,-169246.6875,-187500.015625,-187500.015625,-187500.015625,-187500.015625,0.0
2,1592874739.878552,-169414.390625,-171832.359375,-172669.640625,-169252.59375,-187500.015625,-187500.015625,-187500.015625,-187500.015625,0.0
3,1592874739.878553,-169055.109375,-171823.234375,-172662.640625,-169243.0625,-187500.015625,-187500.015625,-187500.015625,-187500.015625,0.0
4,1592874739.878554,-168293.234375,-171811.0625,-172654.703125,-169230.546875,-187500.015625,-187500.015625,-187500.015625,-187500.015625,0.0
5,1592874739.878555,-168541.21875,-171811.078125,-172652.671875,-169230.578125,-187500.015625,-187500.015625,-187500.015625,-187500.015625,0.0
6,1592874739.878556,-169335.78125,-171819.390625,-172656.0625,-169238.9375,-187500.015625,-187500.015625,-187500.015625,-187500.015625,0.0
7,1592874739.878559,-169175.59375,-171812.625,-172650.390625,-169232.0,-187500.015625,-187500.015625,-187500.015625,-187500.015625,0.0
8,1592874739.87856,-168363.796875,-171798.296875,-172640.671875,-169217.1875,-187500.015625,-187500.015625,-187500.015625,-187500.015625,0.0
9,1592874739.878561,-168402.328125,-171795.65625,-172637.171875,-169214.5,-187500.015625,-187500.015625,-187500.015625,-187500.015625,0.0
10,1592874739.878562,-169218.03125,-171802.234375,-172638.75,-169221.25,-187500.015625,-187500.015625,-187500.015625,-187500.015625,0.0
11,1592874739.878563,-169276.015625,-171802.0,-172638.3125,-169220.828125,-187500.015625,-187500.015625,-187500.015625,-187500.015625,0.0
12,1592874739.878564,-168470.59375,-171788.484375,-172629.40625,-169206.703125,-187500.015625,-187500.015625,-187500.015625,-187500.015625,0.0
13,1592874739.938357,-168297.953125,-171786.78125,-172628.28125,-169204.890625,-187500.015625,-187500.015625,-187500.015625,-187500.015625,0.0
14,1592874739.93836,-169080.640625,-171794.8125,-172631.40625,-169213.03125,-187500.015625,-187500.015625,-187500.015625,-187500.015625,0.0
15,1592874739.938361,-169346.515625,-171793.828125,-172628.953125,-169212.0,-187500.015625,-187500.015625,-187500.015625,-187500.015625,0.0
16,1592874739.938362,-168602.5625,-171781.734375,-172621.171875,-169199.5,-187500.015625,-187500.015625,-187500.015625,-187500.015625,0.0
17,1592874739.938363,-168225.296875,-171775.921875,-172617.0625,-169193.453125,-187500.015625,-187500.015625,-187500.015625,-187500.015625,0.0
18,1592874739.938364,-168919.1875,-171781.890625,-172618.65625,-169199.484375,-187500.015625,-187500.015625,-187500.015625,-187500.015625,0.0
19,1592874739.938365,-169382.109375,-171783.59375,-172617.78125,-169201.140625,-187500.015625,-187500.015625,-187500.015625,-187500.015625,0.0
20,1592874739.938366,-168746.96875,-171772.96875,-172611.046875,-169190.203125,-187500.015625,-187500.015625,-187500.015625,-187500.015625,0.0
21,1592874739.938367,-168190.25,-171764.4375,-172605.4375,-169181.4375,-187500.015625,-187500.015625,-187500.015625,-187500.015625,0.0
22,1592874739.938368,-168751.65625,-171770.890625,-172608.09375,-169187.90625,-187500.015625,-187500.015625,-187500.015625,-187500.015625,0.0
23,1592874739.938369,-169380.53125,-171778.203125,-172611.65625,-169195.25,-187500.015625,-187500.015625,-187500.015625,-187500.015625,0.0
24,1592874739.93837,-168895.453125,-171769.390625,-172605.75,-169186.09375,-187500.015625,-187500.015625,-187500.015625,-187500.015625,0.0
25,1592874739.938371,-168197.96875,-171755.65625,-172595.6875,-169171.90625,-187500.015625,-187500.015625,-187500.015625,-187500.015625,0.0
26,1592874739.938372,-168588.234375,-171760.59375,-172597.90625,-169176.90625,-187500.015625,-187500.015625,-187500.015625,-187500.015625,0.0
27,1592874739.938373,-169333.65625,-171767.0625,-172599.9375,-169183.59375,-187500.015625,-187500.015625,-187500.015625,-187500.015625,0.0
28,1592874739.998583,-169031.859375,-171759.609375,-172594.265625,-169175.703125,-187500.015625,-187500.015625,-187500.015625,-187500.015625,0.0
29,1592874739.998585,-168245.328125,-171745.28125,-172584.34375,-169160.984375,-187500.015625,-187500.015625,-187500.015625,-187500.015625,0.0
30,1592874739.998594,-168436.453125,-171747.890625,-172585.28125,-169163.5625,-187500.015625,-187500.015625,-187500.015625,-187500.015625,0.0
31,1592874739.998595,-169249.765625,-171758.796875,-172591.09375,-169174.515625,-187500.015625,-187500.015625,-187500.015625,-187500.015625,0.0
32,1592874739.998596,-169153.890625,-171754.703125,-172587.84375,-169170.21875,-187500.015625,-187500.015625,-187500.015625,-187500.015625,0.0
33,1592874739.998597,-168333.859375,-171740.890625,-172578.59375,-169155.921875,-187500.015625,-187500.015625,-187500.015625,-187500.015625,0.0
34,1592874739.998598,-168309.84375,-171738.765625,-172576.1875,-169153.765625,-187500.015625,-187500.015625,-187500.015625,-187500.015625,0.0
35,1592874739.998599,-169126.5,-171745.515625,-172577.90625,-169160.65625,-187500.015625,-187500.015625,-187500.015625,-187500.015625,0.0
36,1592874739.9986,-169246.984375,-171743.953125,-172575.828125,-169159.0,-187500.015625,-187500.015625,-187500.015625,-187500.015625,0.0
37,1592874739.998601,-168446.671875,-171728.609375,-172565.09375,-169143.109375,-187500.015625,-187500.015625,-187500.015625,-187500.015625,0.0
38,1592874739.998602,-168207.53125,-171723.28125,-172560.640625,-169137.65625,-187500.015625,-187500.015625,-187500.015625,-187500.015625,0.0
39,1592874739.998603,-168974.90625,-171731.640625,-172564.09375,-169146.1875,-187500.015625,-187500.015625,-187500.015625,-187500.015625,0.0
40,1592874739.998604,-169304.09375,-171732.765625,-172563.421875,-169147.25,-187500.015625,-187500.015625,-187500.015625,-187500.015625,0.0
41,1592874739.998605,-168581.296875,-171719.640625,-172554.640625,-169133.703125,-187500.015625,-187500.015625,-187500.015625,-187500.015625,0.0
42,1592874739.998606,-168142.265625,-171709.9375,-172547.015625,-169123.65625,-187500.015625,-187500.015625,-187500.015625,-187500.015625,0.0
43,1592874740.058499,-168805.0,-171715.578125,-172548.328125,-169129.40625,-187500.015625,-187500.015625,-187500.015625,-187500.015625,0.0
44,1592874740.058502,-169325.046875,-171720.53125,-172550.3125,-169134.34375,-187500.015625,-187500.015625,-187500.015625,-187500.015625,0.0
45,1592874740.058503,-168728.0,-171711.546875,-172544.890625,-169125.0,-187500.015625,-187500.015625,-187500.015625,-187500.015625,0.0
46,1592874740.058504,-168120.0,-171700.03125,-172536.4375,-169113.046875,-187500.015625,-187500.015625,-187500.015625,-187500.015625,0.0
47,1592874740.058505,-168634.03125,-171702.90625,-172535.765625,-169116.015625,-187500.015625,-187500.015625,-187500.015625,-187500.015625,0.0
48,1592874740.058506,-169305.578125,-171709.8125,-172538.765625,-169123.03125,-187500.015625,-187500.015625,-187500.015625,-187500.015625,0.0
49,1592874740.058507,-168869.484375,-171701.640625,-172533.359375,-169114.546875,-187500.015625,-187500.015625,-187500.015625,-187500.015625,0.0
50,1592874740.058508,-168138.0625,-171689.375,-172525.109375,-169101.796875,-187500.015625,-187500.015625,-187500.015625,-187500.015625,0.0
51,1592874740.058509,-168469.234375,-171689.875,-172523.09375,-169102.359375,-187500.015625,-187500.015625,-187500.015625,-187500.015625,0.0
52,1592874740.05851,-169242.46875,-171695.96875,-172524.453125,-169108.484375,-187500.015625,-187500.015625,-187500.015625,-187500.015625,0.0
53,1592874740.058511,-168999.875,-171690.09375,-172520.25,-169102.40625,-187500.015625,-187500.015625,-187500.015625,-187500.015625,0.0
54,1592874740.058515,-168193.984375,-171675.828125,-172510.515625,-169087.71875,-187500.015625,-187500.015625,-187500.015625,-187500.015625,0.0
55,1592874740.058516,-168322.4375,-171677.265625,-172510.578125,-169089.0625,-187500.015625,-187500.015625,-187500.015625,-187500.015625,0.0
56,1592874740.058517,-169143.796875,-171685.796875,-172514.203125,-169097.828125,-187500.015625,-187500.015625,-187500.015625,-187500.015625,0.0
57,1592874740.058518,-169108.53125,-171679.96875,-172508.71875,-169091.765625,-187500.015625,-187500.015625,-187500.015625,-187500.015625,0.0
58,1592874740.117979,-168287.46875,-171665.734375,-172499.046875,-169077.109375,-187500.015625,-187500.015625,-187500.015625,-187500.015625,0.0
59,1592874740.117981,-168199.796875,-171663.9375,-172497.328125,-169075.15625,-187500.015625,-187500.015625,-187500.015625,-187500.015625,0.0
60,1592874740.117982,-169009.78125,-171672.359375,-172500.75,-169083.75,-187500.015625,-187500.015625,-187500.015625,-187500.015625,0.0
61,1592874740.117983,-169194.34375,-171671.890625,-172499.265625,-169083.125,-187500.015625,-187500.015625,-187500.015625,-187500.015625,0.0
62,1592874740.117984,-168411.78125,-171657.640625,-172489.515625,-169068.453125,-187500.015625,-187500.015625,-187500.015625,-187500.015625,0.0
63,1592874740.117985,-168113.140625,-171654.03125,-172486.96875,-169064.5,-187500.015625,-187500.015625,-187500.015625,-187500.015625,0.0
64,1592874740.117986,-168854.921875,-171661.65625,-172490.0,-169072.328125,-187500.015625,-187500.015625,-187500.015625,-187500.015625,0.0
65,1592874740.117987,-169241.078125,-171660.859375,-172487.109375,-169071.578125,-187500.015625,-187500.015625,-187500.015625,-187500.015625,0.0
66,1592874740.117988,-168549.984375,-171648.03125,-172478.328125,-169058.265625,-187500.015625,-187500.015625,-187500.015625,-187500.015625,0.0
67,1592874740.117989,-168058.046875,-171639.234375,-172471.890625,-169049.078125,-187500.015625,-187500.015625,-187500.015625,-187500.015625,0.0
68,1592874740.11799,-168683.890625,-171647.015625,-172475.578125,-169056.90625,-187500.015625,-187500.015625,-187500.015625,-187500.015625,0.0
69,1592874740.117991,-169251.96875,-171650.421875,-172475.671875,-169060.40625,-187500.015625,-187500.015625,-187500.015625,-187500.015625,0.0
70,1592874740.117992,-168695.21875,-171637.75,-172466.359375,-169047.375,-187500.015625,-187500.015625,-187500.015625,-187500.015625,0.0
71,1592874740.117993,-168048.875,-171629.703125,-172461.625,-169039.0,-187500.015625,-187500.015625,-187500.015625,-187500.015625,0.0
72,1592874740.117994,-168514.359375,-171634.328125,-172462.96875,-169043.671875,-187500.015625,-187500.015625,-187500.015625,-187500.015625,0.0
73,1592874740.178018,-169218.75,-171637.75,-172462.28125,-169047.15625,-187500.015625,-187500.015625,-187500.015625,-187500.015625,0.0
74,1592874740.178022,-168837.15625,-171629.828125,-172456.734375,-169038.90625,-187500.015625,-187500.015625,-187500.015625,-187500.015625,0.0
75,1592874740.178023,-168079.84375,-171618.984375,-172450.03125,-169027.59375,-187500.015625,-187500.015625,-187500.015625,-187500.015625,0.0
76,1592874740.178024,-168354.03125,-171620.734375,-172449.6875,-169029.3125,-187500.015625,-187500.015625,-187500.015625,-187500.015625,0.0
77,1592874740.178031,-169147.796875,-171627.796875,-172451.953125,-169036.484375,-187500.015625,-187500.015625,-187500.015625,-187500.015625,0.0
78,1592874740.178032,-168966.21875,-171623.546875,-172448.90625,-169031.984375,-187500.015625,-187500.015625,-187500.015625,-187500.015625,0.0
79,1592874740.178032,-168151.40625,-171610.15625,-172440.03125,-169018.125,-187500.015625,-187500.015625,-187500.015625,-187500.015625,0.0
80,1592874740.178033,-168214.171875,-171608.171875,-172437.15625,-169016.109375,-187500.015625,-187500.015625,-187500.015625,-187500.015625,0.0
81,1592874740.178033,-169036.890625,-171615.25,-172439.171875,-169023.296875,-187500.015625,-187500.015625,-187500.015625,-187500.015625,0.0
82,1592874740.178034,-169070.0625,-171614.765625,-172438.65625,-169022.515625,-187500.015625,-187500.015625,-187500.015625,-187500.015625,0.0
83,1592874740.178034,-168257.375,-171602.578125,-172431.125,-169009.9375,-187500.015625,-187500.015625,-187500.015625,-187500.015625,0.0
84,1592874740.178035,-168105.453125,-171599.125,-172428.03125,-169006.359375,-187500.015625,-187500.015625,-187500.015625,-187500.015625,0.0
85,1592874740.178035,-168901.671875,-171608.125,-172432.140625,-169015.59375,-187500.015625,-187500.015625,-187500.015625,-187500.015625,0.0
86,1592874740.178036,-169147.171875,-171606.5625,-172429.3125,-169013.921875,-187500.015625,-187500.015625,-187500.015625,-187500.015625,0.0
87,1592874740.178036,-168387.21875,-171593.015625,-172420.125,-168999.796875,-187500.015625,-187500.015625,-187500.015625,-187500.015625,0.0
88,1592874740.238325,-168026.953125,-171586.171875,-172414.890625,-168992.796875,-187500.015625,-187500.015625,-187500.015625,-187500.015625,0.0
89,1592874740.238327,-168739.421875,-171593.9375,-172418.109375,-169000.6875,-187500.015625,-187500.015625,-187500.015625,-187500.015625,0.0
90,1592874740.238327,-169185.90625,-171597.0,-172418.625,-169003.765625,-187500.015625,-187500.015625,-187500.015625,-187500.015625,0.0
91,1592874740.238328,-168531.5,-171585.546875,-172411.09375,-168991.921875,-187500.015625,-187500.015625,-187500.015625,-187500.015625,0.0
92,1592874740.238328,-167989.609375,-171577.21875,-172405.453125,-168983.234375,-187500.015625,-187500.015625,-187500.015625,-187500.015625,0.0
93,1592874740.238329,-168569.15625,-171581.1875,-172405.609375,-168987.265625,-187500.015625,-187500.015625,-187500.015625,-187500.015625,0.0
94,1592874740.23833,-169183.953125,-171586.515625,-172407.375,-168992.640625,-187500.015625,-187500.015625,-187500.015625,-187500.015625,0.0
95,1592874740.23833,-168676.921875,-171576.8125,-172400.75,-168982.5625,-187500.015625,-187500.015625,-187500.015625,-187500.015625,0.0
96,1592874740.238331,-167990.140625,-171563.6875,-172391.171875,-168968.984375,-187500.015625,-187500.015625,-187500.015625,-187500.015625,0.0
97,1592874740.238331,-168403.046875,-171568.046875,-172392.546875,-168973.390625,-187500.015625,-187500.015625,-187500.015625,-187500.015625,0.0
98,1592874740.238332,-169140.265625,-171575.15625,-172395.359375,-168980.703125,-187500.015625,-187500.015625,-187500.015625,-187500.015625,0.0
99,1592874740.238333,-168815.828125,-171569.390625,-172391.640625,-168974.578125,-187500.015625,-187500.015625,-187500.015625,-187500.015625,0.0
100,1592874740.238336,-168032.234375,-171554.28125,-172380.828125,-168958.96875,-187500.015625,-187500.015625,-187500.015625,-187500.015625,0.0
101,1592874740.238336,-168245.671875,-171555.21875,-172380.015625,-168959.984375,-187500.015625,-187500.015625,-187500.015625,-187500.015625,0.0
102,1592874740.238337,-169055.609375,-171563.640625,-172383.515625,-168968.546875,-187500.015625,-187500.015625,-187500.015625,-187500.015625,0.0
103,1592874740.298627,-168937.8125,-171561.703125,-172382.375,-168966.359375,-187500.015625,-187500.015625,-187500.015625,-187500.015625,0.0
104,1592874740.29863,-168116.671875,-171548.046875,-172373.421875,-168952.34375,-187500.015625,-187500.015625,-187500.015625,-187500.015625,0.0
105,1592874740.298631,-168113.875,-171543.90625,-172368.6875,-168948.046875,-187500.015625,-187500.015625,-187500.015625,-187500.015625,0.0
106,1592874740.298632,-168934.078125,-171551.078125,-172370.859375,-168955.359375,-187500.015625,-187500.015625,-187500.015625,-187500.015625,0.0
107,1592874740.298633,-169028.71875,-171548.9375,-172368.3125,-168953.078125,-187500.015625,-187500.015625,-187500.015625,-187500.015625,0.0
108,1592874740.298634,-168225.140625,-171535.8125,-172359.859375,-168939.4375,-187500.015625,-187500.015625,-187500.015625,-187500.015625,0.0
109,1592874740.298635,-168010.875,-171531.96875,-172356.84375,-168935.390625,-187500.015625,-187500.015625,-187500.015625,-187500.015625,0.0
110,1592874740.298636,-168786.0,-171538.953125,-172358.9375,-168942.5,-187500.015625,-187500.015625,-187500.015625,-187500.015625,0.0
111,1592874740.298637,-169092.34375,-171539.28125,-172357.578125,-168942.796875,-187500.015625,-187500.015625,-187500.015625,-187500.015625,0.0
112,1592874740.298638,-168357.921875,-171525.578125,-172348.1875,-168928.75,-187500.015625,-187500.015625,-187500.015625,-187500.015625,0.0
113,1592874740.298639,-167943.46875,-171518.859375,-172343.328125,-168921.65625,-187500.015625,-187500.015625,-187500.015625,-187500.015625,0.0
114,1592874740.29864,-168621.0625,-171525.734375,-172345.78125,-168928.59375,-187500.015625,-187500.015625,-187500.015625,-187500.015625,0.0
115,1592874740.298641,-169119.1875,-171529.375,-172346.625,-168932.3125,-187500.015625,-187500.015625,-187500.015625,-187500.015625,0.0
116,1592874740.298642,-168504.59375,-171519.09375,-172340.109375,-168921.671875,-187500.015625,-187500.015625,-187500.015625,-187500.015625,0.0
117,1592874740.298643,-167914.84375,-171508.78125,-172332.75,-168910.9375,-187500.015625,-187500.015625,-187500.015625,-187500.015625,0.0
118,1592874740.359612,-168445.78125,-171510.265625,-172330.625,-168912.5,-187500.015625,-187500.015625,-187500.015625,-187500.015625,0.0
119,1592874740.359615,-169100.9375,-171515.484375,-172332.03125,-168917.890625,-187500.015625,-187500.015625,-187500.015625,-187500.015625,0.0
120,1592874740.359616,-168644.515625,-171506.765625,-172326.171875,-168908.90625,-187500.015625,-187500.015625,-187500.015625,-187500.015625,0.0
121,1592874740.359617,-167924.453125,-171493.234375,-172316.515625,-168894.984375,-187500.015625,-187500.015625,-187500.015625,-187500.015625,0.0
122,1592874740.359618,-168280.90625,-171496.453125,-172317.109375,-168898.09375,-187500.015625,-187500.015625,-187500.015625,-187500.015625,0.0
123,1592874740.359619,-169046.59375,-171505.6875,-172321.75,-168907.4375,-187500.015625,-187500.015625,-187500.015625,-187500.015625,0.0
124,1592874740.359624,-168778.484375,-171498.0625,-172315.828125,-168899.515625,-187500.015625,-187500.015625,-187500.015625,-187500.015625,0.0
125,1592874740.359625,-167981.4375,-171486.515625,-172308.75,-168887.546875,-187500.015625,-187500.015625,-187500.015625,-187500.015625,0.0
126,1592874740.359626,-168133.609375,-171487.65625,-172308.390625,-168888.5625,-187500.015625,-187500.015625,-187500.015625,-187500.015625,0.0
127,1592874740.359627,-168949.140625,-171492.453125,-172308.15625,-168893.578125,-187500.015625,-187500.015625,-187500.015625,-187500.015625,0.0
128,1592874740.359628,-168892.140625,-171488.8125,-172305.03125,-168889.65625,-187500.015625,-187500.015625,-187500.015625,-187500.015625,0.0
129,1592874740.359629,-168073.875,-171477.75,-172298.578125,-168878.171875,-187500.015625,-187500.015625,-187500.015625,-187500.015625,0.0
130,1592874740.35963,-168011.625,-171475.890625,-172296.609375,-168876.15625,-187500.015625,-187500.015625,-187500.015625,-187500.015625,0.0
131,1592874740.359631,-168822.390625,-171482.484375,-172298.21875,-168882.90625,-187500.015625,-187500.015625,-187500.015625,-187500.015625,0.0
132,1592874740.359632,-168980.671875,-171481.421875,-172296.453125,-168881.703125,-187500.015625,-187500.015625,-187500.015625,-187500.015625,0.0
133,1592874740.418964,-168192.203125,-171467.421875,-172286.96875,-168867.328125,-187500.015625,-187500.015625,-187500.015625,-187500.015625,0.0
134,1592874740.418967,-167913.984375,-171460.6875,-172281.296875,-168860.5,-187500.015625,-187500.015625,-187500.015625,-187500.015625,0.0
135,1592874740.418968,-168665.8125,-171468.65625,-172284.375,-168868.46875,-187500.015625,-187500.015625,-187500.015625,-187500.015625,0.0
136,1592874740.418969,-169030.90625,-171468.921875,-172282.609375,-168868.671875,-187500.015625,-187500.015625,-187500.015625,-187500.015625,0.0
137,1592874740.41897,-168327.3125,-171455.421875,-172273.203125,-168854.65625,-187500.015625,-187500.015625,-187500.015625,-187500.015625,0.0
138,1592874740.418971,-167858.59375,-171448.359375,-172268.359375,-168847.21875,-187500.015625,-187500.015625,-187500.015625,-187500.015625,0.0
139,1592874740.418972,-168500.15625,-171456.765625,-172272.625,-168855.828125,-187500.015625,-187500.015625,-187500.015625,-187500.015625,0.0
140,1592874740.418973,-169052.515625,-171464.40625,-172277.15625,-168863.46875,-187500.015625,-187500.015625,-187500.015625,-187500.015625,0.0
141,1592874740.418974,-168479.203125,-171452.3125,-172268.59375,-168851.109375,-187500.015625,-187500.015625,-187500.015625,-187500.015625,0.0
142,1592874740.418975,-167845.03125,-171440.71875,-172260.328125,-168839.125,-187500.015625,-187500.015625,-187500.015625,-187500.015625,0.0
143,1592874740.418976,-168330.25,-171445.875,-172261.984375,-168844.265625,-187500.015625,-187500.015625,-187500.015625,-187500.015625,0.0
144,1592874740.418977,-169022.078125,-171450.09375,-172262.03125,-168848.5625,-187500.015625,-187500.015625,-187500.015625,-187500.015625,0.0
145,1592874740.418978,-168620.59375,-171443.15625,-172257.640625,-168841.3125,-187500.015625,-187500.015625,-187500.015625,-187500.015625,0.0
146,1592874740.418979,-167875.15625,-171433.09375,-172251.546875,-168830.8125,-187500.015625,-187500.015625,-187500.015625,-187500.015625,0.0
147,1592874740.418984,-168172.171875,-171434.3125,-172250.625,-168832.125,-187500.015625,-187500.015625,-187500.015625,-187500.015625,0.0
148,1592874740.478728,-168955.796875,-171439.796875,-172251.453125,-168837.71875,-187500.015625,-187500.015625,-187500.015625,-187500.015625,0.0
149,1592874740.478731,-168747.96875,-171432.578125,-172245.578125,-168830.25,-187500.015625,-187500.015625,-187500.015625,-187500.015625,0.0
150,1592874740.478732,-167934.375,-171417.4375,-172235.03125,-168814.65625,-187500.015625,-187500.015625,-187500.015625,-187500.015625,0.0
151,1592874740.478733,-168020.765625,-171415.546875,-172232.03125,-168812.609375,-187500.015625,-187500.015625,-187500.015625,-187500.015625,0.0
152,1592874740.478734,-168842.640625,-171422.15625,-172233.546875,-168819.484375,-187500.015625,-187500.015625,-187500.015625,-187500.015625,0.0
153,1592874740.478735,-168852.65625,-171421.765625,-172233.34375,-168818.8125,-187500.015625,-187500.015625,-187500.015625,-187500.015625,0.0
154,1592874740.478736,-168035.609375,-171408.078125,-172224.296875,-168804.65625,-187500.015625,-187500.015625,-187500.015625,-187500.015625,0.0
155,1592874740.478737,-167908.3125,-171404.390625,-172220.8125,-168800.796875,-187500.015625,-187500.015625,-187500.015625,-187500.015625,0.0
156,1592874740.478738,-168708.078125,-171412.1875,-172223.625,-168808.75,-187500.015625,-187500.015625,-187500.015625,-187500.015625,0.0
157,1592874740.478739,-168929.265625,-171411.640625,-172221.90625,-168808.109375,-187500.015625,-187500.015625,-187500.015625,-187500.015625,0.0
158,1592874740.47874,-168160.125,-171397.546875,-172212.15625,-168793.578125,-187500.015625,-187500.015625,-187500.015625,-187500.015625,0.0
159,1592874740.478741,-167822.171875,-171390.375,-172206.453125,-168786.21875,-187500.015625,-187500.015625,-187500.015625,-187500.015625,0.0
160,1592874740.478742,-168546.90625,-171398.875,-172210.375,-168794.875,-187500.015625,-187500.015625,-187500.015625,-187500.015625,0.0
161,1592874740.478743,-168970.78125,-171401.34375,-172210.4375,-168797.265625,-187500.015625,-187500.015625,-187500.015625,-187500.015625,0.0
162,1592874740.478744,-168300.453125,-171387.984375,-172201.0,-168783.375,-187500.015625,-187500.015625,-187500.015625,-187500.015625,0.0
163,1592874740.537655,-167778.734375,-171380.46875,-172196.015625,-168775.421875,-187500.015625,-187500.015625,-187500.015625,-187500.015625,0.0
164,1592874740.537658,-168376.671875,-171386.21875,-172197.703125,-168781.28125,-187500.015625,-187500.015625,-187500.015625,-187500.015625,0.0
165,1592874740.537659,-168974.515625,-171391.765625,-172199.890625,-168786.984375,-187500.015625,-187500.015625,-187500.015625,-187500.015625,0.0
166,1592874740.53766,-168448.734375,-171381.75,-172193.0,-168776.546875,-187500.015625,-187500.015625,-187500.015625,-187500.015625,0.0
167,1592874740.537661,-167775.578125,-171369.796875,-172184.578125,-168764.140625,-187500.015625,-187500.015625,-187500.015625,-187500.015625,0.0
168,1592874740.537662,-168207.6875,-171373.328125,-172185.140625,-168767.78125,-187500.015625,-187500.015625,-187500.015625,-187500.015625,0.0
169,1592874740.537663,-168933.109375,-171378.734375,-172186.234375,-168773.328125,-187500.015625,-187500.015625,-187500.015625,-187500.015625,0.0
170,1592874740.537667,-168585.609375,-171371.203125,-172181.046875,-168765.703125,-187500.015625,-187500.015625,-187500.015625,-187500.015625,0.0
171,1592874740.537668,-167814.28125,-171359.46875,-172173.46875,-168753.453125,-187500.015625,-187500.015625,-187500.015625,-187500.015625,0.0
172,1592874740.537669,-168053.59375,-171362.421875,-172174.4375,-168756.421875,-187500.015625,-187500.015625,-187500.015625,-187500.015625,0.0
173,1592874740.53767,-168856.8125,-171369.765625,-172176.90625,-168763.796875,-187500.015625,-187500.015625,-187500.015625,-187500.015625,0.0
174,1592874740.537672,-168712.328125,-171364.359375,-172172.53125,-168758.21875,-187500.015625,-187500.015625,-187500.015625,-187500.015625,0.0
175,1592874740.537673,-167892.28125,-171350.640625,-172163.328125,-168743.953125,-187500.015625,-187500.015625,-187500.015625,-187500.015625,0.0
176,1592874740.537674,-167915.46875,-171347.84375,-172159.75,-168740.9375,-187500.015625,-187500.015625,-187500.015625,-187500.015625,0.0
177,1592874740.537675,-168738.09375,-171356.046875,-172162.875,-168749.390625,-187500.015625,-187500.015625,-187500.015625,-187500.015625,0.0
178,1592874740.597984,-168808.28125,-171353.390625,-172160.078125,-168746.546875,-187500.015625,-187500.015625,-187500.015625,-187500.015625,0.0
179,1592874740.597993,-167996.796875,-171336.984375,-172148.328125,-168729.640625,-187500.015625,-187500.015625,-187500.015625,-187500.015625,0.0
180,1592874740.597994,-167807.140625,-171333.5625,-172145.390625,-168726.109375,-187500.015625,-187500.015625,-187500.015625,-187500.015625,0.0
181,1592874740.597995,-168593.234375,-171343.953125,-172150.875,-168736.6875,-187500.015625,-187500.015625,-187500.015625,-187500.015625,0.0
182,1592874740.597996,-168876.234375,-171345.046875,-172150.421875,-168737.71875,-187500.015625,-187500.015625,-187500.015625,-187500.015625,0.0
183,1592874740.597997,-168131.09375,-171331.28125,-172140.953125,-168723.4375,-187500.015625,-187500.015625,-187500.015625,-187500.015625,0.0
184,1592874740.597998,-167736.21875,-171323.046875,-172134.4375,-168714.96875,-187500.015625,-187500.015625,-187500.015625,-187500.015625,0.0
185,1592874740.597999,-168429.4375,-171331.453125,-172138.359375,-168723.546875,-187500.015625,-187500.015625,-187500.015625,-187500.015625,0.0
186,1592874740.598,-168906.046875,-171333.9375,-172138.125,-168726.078125,-187500.015625,-187500.015625,-187500.015625,-187500.015625,0.0
187,1592874740.598001,-168274.796875,-171322.453125,-172130.46875,-168714.0,-187500.015625,-187500.015625,-187500.015625,-187500.015625,0.0
188,1592874740.598002,-167707.03125,-171314.40625,-172125.296875,-168705.546875,-187500.015625,-187500.015625,-187500.015625,-187500.015625,0.0
189,1592874740.598003,-168259.546875,-171318.625,-172125.8125,-168709.859375,-187500.015625,-187500.015625,-187500.015625,-187500.015625,0.0
190,1592874740.598004,-168896.609375,-171322.25,-172125.765625,-168713.53125,-187500.015625,-187500.015625,-187500.015625,-187500.015625,0.0
191,1592874740.598005,-168419.53125,-171312.640625,-172119.015625,-168703.625,-187500.015625,-187500.015625,-187500.015625,-187500.015625,0.0
192,1592874740.598006,-167712.15625,-171300.515625,-172110.6875,-168691.15625,-187500.015625,-187500.015625,-187500.015625,-187500.015625,0.0
193,1592874740.658307,-168088.171875,-171302.0,-172109.390625,-168692.65625,-187500.015625,-187500.015625,-187500.015625,-187500.015625,0.0
194,1592874740.658313,-168842.5625,-171308.40625,-172111.28125,-168699.3125,-187500.015625,-187500.015625,-187500.015625,-187500.015625,0.0
195,1592874740.658314,-168552.828125,-171301.84375,-172106.609375,-168692.46875,-187500.015625,-187500.015625,-187500.015625,-187500.015625,0.0
196,1592874740.658315,-167761.546875,-171288.875,-172098.015625,-168678.90625,-187500.015625,-187500.015625,-187500.015625,-187500.015625,0.0
197,1592874740.658316,-167938.171875,-171288.828125,-172096.40625,-168678.8125,-187500.015625,-187500.015625,-187500.015625,-187500.015625,0.0
198,1592874740.658317,-168751.390625,-171296.28125,-172098.96875,-168686.484375,-187500.015625,-187500.015625,-187500.015625,-187500.015625,0.0
199,1592874740.658318,-168669.453125,-171293.234375,-172096.609375,-168683.09375,-187500.015625,-187500.015625,-187500.015625,-187500.015625,0.0
200,1592874740.658319,-167847.921875,-171279.375,-172087.328125,-168668.8125,-187500.015625,-187500.015625,-187500.015625,-187500.015625,0.0
201,1592874740.65832,-167807.1875,-171275.0625,-172082.703125,-168664.46875,-187500.015625,-187500.015625,-187500.015625,-187500.015625,0.0
202,1592874740.658321,-168626.140625,-171285.34375,-172087.765625,-168674.78125,-187500.015625,-187500.015625,-187500.015625,-187500.015625,0.0
203,1592874740.658322,-168761.515625,-171285.4375,-172087.328125,-168674.734375,-187500.015625,-187500.015625,-187500.015625,-187500.015625,0.0
204,1592874740.658323,-167965.46875,-171270.4375,-172076.9375,-168659.28125,-187500.015625,-187500.015625,-187500.015625,-187500.015625,0.0
205,1592874740.658324,-167712.21875,-171263.28125,-172070.671875,-168651.953125,-187500.015625,-187500.015625,-187500.015625,-187500.015625,0.0
206,1592874740.658325,-168475.34375,-171272.828125,-172075.484375,-168661.8125,-187500.015625,-187500.015625,-187500.015625,-187500.015625,0.0
207,1592874740.658327,-168815.359375,-171271.90625,-172072.75,-168660.9375,-187500.015625,-187500.015625,-187500.015625,-187500.015625,0.0
208,1592874740.718566,-168099.234375,-171258.953125,-172063.921875,-168647.4375,-187500.015625,-187500.015625,-187500.015625,-187500.015625,0.0
209,1592874740.718572,-167650.5,-171252.28125,-172059.390625,-168640.46875,-187500.015625,-187500.015625,-187500.015625,-187500.015625,0.0
210,1592874740.718573,-168304.46875,-171257.546875,-172060.1875,-168645.734375,-187500.015625,-187500.015625,-187500.015625,-187500.015625,0.0
211,1592874740.718574,-168832.15625,-171258.921875,-172058.625,-168647.109375,-187500.015625,-187500.015625,-187500.015625,-187500.015625,0.0
212,1592874740.718575,-168244.40625,-171249.8125,-172053.1875,-168637.6875,-187500.015625,-187500.015625,-187500.015625,-187500.015625,0.0
213,1592874740.718576,-167628.5625,-171239.640625,-172046.171875,-168627.09375,-187500.015625,-187500.015625,-187500.015625,-187500.015625,0.0
214,1592874740.718577,-168133.171875,-171244.078125,-172047.109375,-168631.59375,-187500.015625,-187500.015625,-187500.015625,-187500.015625,0.0
215,1592874740.718578,-168814.515625,-171252.421875,-172051.5,-168640.03125,-187500.015625,-187500.015625,-187500.015625,-187500.015625,0.0
216,1592874740.718579,-168391.484375,-171245.625,-172047.296875,-168632.890625,-187500.015625,-187500.015625,-187500.015625,-187500.015625,0.0
217,1592874740.71859,-167653.875,-171233.515625,-172039.15625,-168620.328125,-187500.015625,-187500.015625,-187500.015625,-187500.015625,0.0
218,1592874740.718591,-167972.953125,-171234.234375,-172037.5,-168621.046875,-187500.015625,-187500.015625,-187500.015625,-187500.015625,0.0
219,1592874740.718592,-168750.125,-171240.078125,-172038.59375,-168626.9375,-187500.015625,-187500.015625,-187500.015625,-187500.015625,0.0
220,1592874740.718593,-168518.046875,-171232.5,-172032.453125,-168619.078125,-187500.015625,-187500.015625,-187500.015625,-187500.015625,0.0
221,1592874740.718594,-167713.828125,-171221.546875,-172026.0,-168607.671875,-187500.015625,-187500.015625,-187500.015625,-187500.015625,0.0
222,1592874740.718595,-167829.078125,-171222.765625,-172025.96875,-168608.796875,-187500.015625,-187500.015625,-187500.015625,-187500.015625,0.0
223,1592874740.780357,-168648.796875,-171229.09375,-172027.375,-168615.46875,-187500.015625,-187500.015625,-187500.015625,-187500.015625,0.0
224,1592874740.780362,-168628.328125,-171224.96875,-172023.5625,-168611.203125,-187500.015625,-187500.015625,-187500.015625,-187500.015625,0.0
225,1592874740.780363,-167809.265625,-171211.421875,-172014.640625,-168597.140625,-187500.015625,-187500.015625,-187500.015625,-187500.015625,0.0
226,1592874740.780364,-167707.453125,-171208.796875,-172011.984375,-168594.21875,-187500.015625,-187500.015625,-187500.015625,-187500.015625,0.0
227,1592874740.780365,-168514.28125,-171217.0625,-172015.3125,-168602.6875,-187500.015625,-187500.015625,-187500.015625,-187500.015625,0.0
228,1592874740.780366,-168709.75,-171215.09375,-172012.265625,-168600.546875,-187500.015625,-187500.015625,-187500.015625,-187500.015625,0.0
229,1592874740.780367,-167933.703125,-171202.390625,-172004.09375,-168587.421875,-187500.015625,-187500.015625,-187500.015625,-187500.015625,0.0
230,1592874740.780368,-167620.265625,-171195.328125,-171998.28125,-168580.1875,-187500.015625,-187500.015625,-187500.015625,-187500.015625,0.0
231,1592874740.780369,-168355.046875,-171202.234375,-172000.484375,-168587.171875,-187500.015625,-187500.015625,-187500.015625,-187500.015625,0.0
232,1592874740.78037,-168756.25,-171204.828125,-172000.9375,-168589.71875,-187500.015625,-187500.015625,-187500.015625,-187500.015625,0.0
233,1592874740.780371,-168073.46875,-171193.1875,-171993.265625,-168577.609375,-187500.015625,-187500.015625,-187500.015625,-187500.015625,0.0
234,1592874740.780372,-167570.21875,-171184.21875,-171986.828125,-168568.265625,-187500.015625,-187500.015625,-187500.015625,-187500.015625,0.0
235,1592874740.780373,-168181.890625,-171186.4375,-171985.015625,-168570.6875,-187500.015625,-187500.015625,-187500.015625,-187500.015625,0.0
236,1592874740.780374,-168762.453125,-171193.28125,-171988.46875,-168577.5625,-187500.015625,-187500.015625,-187500.015625,-187500.015625,0.0
237,1592874740.780375,-168217.296875,-171182.9375,-171981.328125,-168566.796875,-187500.015625,-187500.015625,-187500.015625,-187500.015625,0.0
238,1592874740.780376,-167558.953125,-171169.421875,-171971.390625,-168552.90625,-187500.015625,-187500.015625,-187500.015625,-187500.015625,0.0
239,1592874740.840561,-168013.546875,-171173.765625,-171972.5,-168557.265625,-187500.015625,-187500.015625,-187500.015625,-187500.015625,0.0
240,1592874740.84057,-168726.78125,-171180.265625,-171974.734375,-168563.9375,-187500.015625,-187500.015625,-187500.015625,-187500.015625,0.0
241,1592874740.84057,-168355.609375,-171171.546875,-171968.421875,-168554.921875,-187500.015625,-187500.015625,-187500.015625,-187500.015625,0.0
242,1592874740.840571,-167591.828125,-171158.671875,-171959.703125,-168541.609375,-187500.015625,-187500.015625,-187500.015625,-187500.015625,0.0
243,1592874740.840571,-167850.640625,-171157.25,-171956.078125,-168540.109375,-187500.015625,-187500.015625,-187500.015625,-187500.015625,0.0
244,1592874740.840572,-168647.59375,-171164.71875,-171958.796875,-168547.703125,-187500.015625,-187500.015625,-187500.015625,-187500.015625,0.0
245,1592874740.840572,-168477.359375,-171159.265625,-171954.53125,-168542.046875,-187500.015625,-187500.015625,-187500.015625,-187500.015625,0.0
246,1592874740.840573,-167663.765625,-171147.5,-171947.3125,-168529.828125,-187500.015625,-187500.015625,-187500.015625,-187500.015625,0.0
247,1592874740.840573,-167715.609375,-171146.34375,-171945.234375,-168528.484375,-187500.015625,-187500.015625,-187500.015625,-187500.015625,0.0
248,1592874740.840574,-168537.984375,-171154.4375,-171948.28125,-168536.8125,-187500.015625,-187500.015625,-187500.015625,-187500.015625,0.0
249,1592874740.840574,-168582.796875,-171152.75,-171946.4375,-168534.890625,-187500.015625,-187500.015625,-187500.015625,-187500.015625,0.0
250,1592874740.840575,-167771.3125,-171139.96875,-171938.4375,-168521.6875,-187500.015625,-187500.015625,-187500.015625,-187500.015625,0.0
251,1592874740.840575,-167607.546875,-171136.53125,-171935.375,-168518.0625,-187500.015625,-187500.015625,-187500.015625,-187500.015625,0.0
252,1592874740.840576,-168396.671875,-171142.578125,-171936.40625,-168524.234375,-187500.015625,-187500.015625,-187500.015625,-187500.015625,0.0
253,1592874740.840576,-168654.65625,-171143.375,-171935.84375,-168524.921875,-187500.015625,-187500.015625,-187500.015625,-187500.015625,0.0
254,1592874740.898973,-167902.203125,-171132.34375,-171929.203125,-168513.375,-187500.015625,-187500.015625,-187500.015625,-187500.015625,0.0
255,1592874740.898977,-167532.171875,-171125.109375,-171923.71875,-168506.015625,-187500.015625,-187500.015625,-187500.015625,-187500.015625,0.0
256,1592874740.898978,-168238.71875,-171133.234375,-171927.171875,-168514.171875,-187500.015625,-187500.015625,-187500.015625,-187500.015625,0.0
257,1592874740.898979,-168693.90625,-171136.484375,-171927.6875,-168517.328125,-187500.015625,-187500.015625,-187500.015625,-187500.015625,0.0
258,1592874740.898979,-168047.34375,-171125.859375,-171920.921875,-168506.3125,-187500.015625,-187500.015625,-187500.015625,-187500.015625,0.0
259,1592874740.89898,-167497.375,-171117.078125,-171914.90625,-168497.125,-187500.015625,-187500.015625,-187500.015625,-187500.015625,0.0
260,1592874740.898981,-168070.859375,-171123.3125,-171917.34375,-168503.46875,-187500.015625,-187500.015625,-187500.015625,-187500.015625,0.0
261,1592874740.898981,-168692.34375,-171128.296875,-171918.75,-168508.5625,-187500.015625,-187500.015625,-187500.015625,-187500.015625,0.0
262,1592874740.898982,-168192.375,-171116.71875,-171910.1875,-168496.609375,-187500.015625,-187500.015625,-187500.015625,-187500.015625,0.0
263,1592874740.898992,-167498.265625,-171103.015625,-171900.0625,-168482.421875,-187500.015625,-187500.015625,-187500.015625,-187500.015625,0.0
264,1592874740.898992,-167901.203125,-171107.65625,-171901.828125,-168487.125,-187500.015625,-187500.015625,-187500.015625,-187500.015625,0.0
265,1592874740.898993,-168644.265625,-171114.4375,-171904.28125,-168494.125,-187500.015625,-187500.015625,-187500.015625,-187500.015625,0.0
266,1592874740.898994,-168329.109375,-171107.3125,-171899.234375,-168486.609375,-187500.015625,-187500.015625,-187500.015625,-187500.015625,0.0
267,1592874740.898994,-167544.796875,-171094.15625,-171890.421875,-168473.109375,-187500.015625,-187500.015625,-187500.015625,-187500.015625,0.0
268,1592874740.898995,-167746.078125,-171092.984375,-171887.53125,-168471.96875,-187500.015625,-187500.015625,-187500.015625,-187500.015625,0.0
269,1592874740.959162,-168554.09375,-171098.484375,-171888.03125,-168477.5,-187500.015625,-187500.015625,-187500.015625,-187500.015625,0.0
270,1592874740.959163,-168441.75,-171091.953125,-171882.296875,-168470.65625,-187500.015625,-187500.015625,-187500.015625,-187500.015625,0.0
271,1592874740.959163,-167622.234375,-171079.21875,-171874.21875,-168457.46875,-187500.015625,-187500.015625,-187500.015625,-187500.015625,0.0
272,1592874740.959164,-167613.734375,-171078.25,-171872.640625,-168456.3125,-187500.015625,-187500.015625,-187500.015625,-187500.015625,0.0
273,1592874740.959164,-168432.640625,-171086.328125,-171875.65625,-168464.6875,-187500.015625,-187500.015625,-187500.015625,-187500.015625,0.0
274,1592874740.959165,-168537.5625,-171085.125,-171873.9375,-168463.265625,-187500.015625,-187500.015625,-187500.015625,-187500.015625,0.0
275,1592874740.959165,-167736.8125,-171072.125,-171865.703125,-168449.84375,-187500.015625,-187500.015625,-187500.015625,-187500.015625,0.0
276,1592874740.959166,-167513.4375,-171068.5625,-171862.921875,-168446.0,-187500.015625,-187500.015625,-187500.015625,-187500.015625,0.0
277,1592874740.959166,-168287.890625,-171078.6875,-171868.171875,-168456.28125,-187500.015625,-187500.015625,-187500.015625,-187500.015625,0.0
278,1592874740.959167,-168602.046875,-171077.765625,-171865.484375,-168455.296875,-187500.015625,-187500.015625,-187500.015625,-187500.015625,0.0
279,1592874740.959167,-167867.1875,-171059.140625,-171851.140625,-168436.234375,-187500.015625,-187500.015625,-187500.015625,-187500.015625,0.0
280,1592874740.959168,-167441.65625,-171050.875,-171844.875,-168427.671875,-187500.015625,-187500.015625,-187500.015625,-187500.015625,0.0
281,1592874740.959168,-168113.453125,-171057.375,-171846.984375,-168434.25,-187500.015625,-187500.015625,-187500.015625,-187500.015625,0.0
282,1592874740.959169,-168618.890625,-171060.21875,-171846.90625,-168437.125,-187500.015625,-187500.015625,-187500.015625,-187500.015625,0.0
283,1592874740.95917,-168012.671875,-171051.96875,-171842.265625,-168428.546875,-187500.015625,-187500.015625,-187500.015625,-187500.015625,0.0
284,1592874741.020943,-167417.109375,-171041.5625,-171835.0,-168417.859375,-187500.015625,-187500.015625,-187500.015625,-187500.015625,0.0
285,1592874741.020944,-167945.34375,-171046.984375,-171836.875,-168423.34375,-187500.015625,-187500.015625,-187500.015625,-187500.015625,0.0
286,1592874741.020948,-168609.3125,-171055.140625,-171841.140625,-168431.46875,-187500.015625,-187500.015625,-187500.015625,-187500.015625,0.0
287,1592874741.020948,-168158.578125,-171044.703125,-171833.453125,-168420.640625,-187500.015625,-187500.015625,-187500.015625,-187500.015625,0.0
288,1592874741.020949,-167432.859375,-171031.3125,-171823.859375,-168406.78125,-187500.015625,-187500.015625,-187500.015625,-187500.015625,0.0
289,1592874741.020949,-167780.078125,-171033.953125,-171824.0,-168409.546875,-187500.015625,-187500.015625,-187500.015625,-187500.015625,0.0
290,1592874741.02095,-168551.484375,-171044.0625,-171829.46875,-168419.8125,-187500.015625,-187500.015625,-187500.015625,-187500.015625,0.0
291,1592874741.020951,-168291.640625,-171035.75,-171822.84375,-168411.15625,-187500.015625,-187500.015625,-187500.015625,-187500.015625,0.0
292,1592874741.020951,-167490.515625,-171022.40625,-171814.046875,-168397.390625,-187500.015625,-187500.015625,-187500.015625,-187500.015625,0.0
293,1592874741.020952,-167631.625,-171021.109375,-171811.34375,-168396.0,-187500.015625,-187500.015625,-187500.015625,-187500.015625,0.0
294,1592874741.020952,-168450.8125,-171028.75,-171813.921875,-168403.796875,-187500.015625,-187500.015625,-187500.015625,-187500.015625,0.0
295,1592874741.020953,-168401.84375,-171024.453125,-171810.015625,-168399.25,-187500.015625,-187500.015625,-187500.015625,-187500.015625,0.0
296,1592874741.020953,-167579.84375,-171010.28125,-171800.515625,-168384.671875,-187500.015625,-187500.015625,-187500.015625,-187500.015625,0.0
297,1592874741.020954,-167505.578125,-171006.328125,-171796.375,-168380.578125,-187500.015625,-187500.015625,-187500.015625,-187500.015625,0.0
298,1592874741.020955,-168317.328125,-171013.796875,-171798.859375,-168388.109375,-187500.015625,-187500.015625,-187500.015625,-187500.015625,1.0
299,1592874741.078375,-168486.546875,-171013.34375,-171797.609375,-168387.515625,-187500.015625,-187500.015625,-187500.015625,-187500.015625,0.0
300,1592874741.078377,-167700.859375,-171000.859375,-171789.625,-168374.71875,-187500.015625,-187500.015625,-187500.015625,-187500.015625,0.0
301,1592874741.078378,-167418.0,-170998.125,-171788.140625,-168371.8125,-187500.015625,-187500.015625,-187500.015625,-187500.015625,0.0
302,1592874741.078378,-168165.484375,-171004.453125,-171789.625,-168378.171875,-187500.015625,-187500.015625,-187500.015625,-187500.015625,0.0
303,1592874741.078379,-168537.578125,-171003.6875,-171786.65625,-168377.359375,-187500.015625,-187500.015625,-187500.015625,-187500.015625,0.0
304,1592874741.078379,-167838.796875,-170991.78125,-171778.921875,-168365.0625,-187500.015625,-187500.015625,-187500.015625,-187500.015625,0.0
305,1592874741.07838,-167362.640625,-170985.90625,-171775.40625,-168358.90625,-187500.015625,-187500.015625,-187500.015625,-187500.015625,0.0
306,1592874741.07838,-167998.65625,-170993.15625,-171778.46875,-168366.140625,-187500.015625,-187500.015625,-187500.015625,-187500.015625,0.0
307,1592874741.078381,-168555.265625,-170996.40625,-171778.53125,-168369.359375,-187500.015625,-187500.015625,-187500.015625,-187500.015625,0.0
308,1592874741.078382,-167987.859375,-170984.734375,-171770.28125,-168357.40625,-187500.015625,-187500.015625,-187500.015625,-187500.015625,0.0
309,1592874741.078382,-167348.828125,-170974.71875,-171763.578125,-168346.9375,-187500.015625,-187500.015625,-187500.015625,-187500.015625,0.0
310,1592874741.078385,-167828.671875,-170980.421875,-171765.953125,-168352.6875,-187500.015625,-187500.015625,-187500.015625,-187500.015625,0.0
311,1592874741.078386,-168524.75,-170984.15625,-171765.625,-168356.59375,-187500.015625,-187500.015625,-187500.015625,-187500.015625,0.0
312,1592874741.078387,-168127.5625,-170975.171875,-171758.984375,-168347.234375,-187500.015625,-187500.015625,-187500.015625,-187500.015625,0.0
313,1592874741.078387,-167377.046875,-170964.625,-171752.5,-168336.296875,-187500.015625,-187500.015625,-187500.015625,-187500.015625,0.0
314,1592874741.140064,-167665.375,-170965.15625,-171750.859375,-168336.71875,-187500.015625,-187500.015625,-187500.015625,-187500.015625,0.0
315,1592874741.140066,-168454.90625,-170971.96875,-171752.90625,-168343.625,-187500.015625,-187500.015625,-187500.015625,-187500.015625,0.0
316,1592874741.140067,-168256.9375,-170965.78125,-171747.984375,-168337.125,-187500.015625,-187500.015625,-187500.015625,-187500.015625,0.0
317,1592874741.140067,-167443.9375,-170953.203125,-171740.09375,-168324.28125,-187500.015625,-187500.015625,-187500.015625,-187500.015625,0.0
318,1592874741.140068,-167524.0,-170952.28125,-171738.125,-168323.203125,-187500.015625,-187500.015625,-187500.015625,-187500.015625,0.0
319,1592874741.140068,-168345.890625,-170958.78125,-171739.421875,-168329.859375,-187500.015625,-187500.015625,-187500.015625,-187500.015625,0.0
320,1592874741.140069,-168358.390625,-170954.5,-171735.203125,-168325.375,-187500.015625,-187500.015625,-187500.015625,-187500.015625,0.0
321,1592874741.14007,-167540.78125,-170940.015625,-171725.3125,-168310.34375,-187500.015625,-187500.015625,-187500.015625,-187500.015625,0.0
322,1592874741.14007,-167405.84375,-170936.65625,-171722.234375,-168306.9375,-187500.015625,-187500.015625,-187500.015625,-187500.015625,0.0
323,1592874741.140071,-168207.171875,-170946.109375,-171726.8125,-168316.703125,-187500.015625,-187500.015625,-187500.015625,-187500.015625,0.0
324,1592874741.140071,-168436.421875,-170945.109375,-171724.578125,-168315.484375,-187500.015625,-187500.015625,-187500.015625,-187500.015625,0.0
325,1592874741.140072,-167669.8125,-170932.03125,-171715.953125,-168301.921875,-187500.015625,-187500.015625,-187500.015625,-187500.015625,0.0
326,1592874741.140073,-167326.296875,-170926.125,-171711.484375,-168295.734375,-187500.015625,-187500.015625,-187500.015625,-187500.015625,0.0
327,1592874741.140073,-168047.03125,-170933.375,-171714.046875,-168303.09375,-187500.015625,-187500.015625,-187500.015625,-187500.015625,0.0
328,1592874741.140074,-168477.078125,-170935.875,-171714.125,-168305.609375,-187500.015625,-187500.015625,-187500.015625,-187500.015625,0.0
329,1592874741.199287,-167812.796875,-170925.015625,-171707.1875,-168294.234375,-187500.015625,-187500.015625,-187500.015625,-187500.015625,0.0
330,1592874741.199289,-167285.6875,-170917.5,-171702.34375,-168286.34375,-187500.015625,-187500.015625,-187500.015625,-187500.015625,0.0
331,1592874741.19929,-167877.671875,-170921.484375,-171702.5,-168290.546875,-187500.015625,-187500.015625,-187500.015625,-187500.015625,0.0
332,1592874741.19929,-168479.640625,-170925.859375,-171703.375,-168295.015625,-187500.015625,-187500.015625,-187500.015625,-187500.015625,0.0
333,1592874741.199293,-167960.25,-170917.140625,-171697.578125,-168285.71875,-187500.015625,-187500.015625,-187500.015625,-187500.015625,0.0
334,1592874741.199294,-167282.625,-170905.40625,-171689.390625,-168273.5625,-187500.015625,-187500.015625,-187500.015625,-187500.015625,0.0
335,1592874741.199294,-167708.171875,-170907.875,-171688.90625,-168276.15625,-187500.015625,-187500.015625,-187500.015625,-187500.015625,0.0
336,1592874741.199295,-168438.34375,-170914.53125,-171691.15625,-168282.96875,-187500.015625,-187500.015625,-187500.015625,-187500.015625,0.0
337,1592874741.199296,-168099.75,-170909.96875,-171688.75,-168278.046875,-187500.015625,-187500.015625,-187500.015625,-187500.015625,0.0
338,1592874741.199296,-167325.25,-170898.453125,-171681.546875,-168266.078125,-187500.015625,-187500.015625,-187500.015625,-187500.015625,0.0
339,1592874741.199297,-167554.734375,-170898.546875,-171679.734375,-168266.203125,-187500.015625,-187500.015625,-187500.015625,-187500.015625,0.0
340,1592874741.199297,-168360.984375,-170906.265625,-171682.5625,-168274.125,-187500.015625,-187500.015625,-187500.015625,-187500.015625,0.0
341,1592874741.199298,-168222.578125,-170899.578125,-171676.8125,-168267.03125,-187500.015625,-187500.015625,-187500.015625,-187500.015625,0.0
342,1592874741.199299,-167400.34375,-170884.9375,-171666.84375,-168252.015625,-187500.015625,-187500.015625,-187500.015625,-187500.015625,0.0
343,1592874741.199299,-167418.71875,-170884.328125,-171665.6875,-168251.4375,-187500.015625,-187500.015625,-187500.015625,-187500.015625,0.0
344,1592874741.25927,-168242.640625,-170894.171875,-171670.4375,-168261.359375,-187500.015625,-187500.015625,-187500.015625,-187500.015625,0.0
345,1592874741.259272,-168317.8125,-170890.09375,-171666.0,-168257.125,-187500.015625,-187500.015625,-187500.015625,-187500.015625,0.0
346,1592874741.259272,-167509.078125,-170875.4375,-171655.890625,-168241.84375,-187500.015625,-187500.015625,-187500.015625,-187500.015625,0.0
347,1592874741.259273,-167311.0,-170870.546875,-171651.640625,-168236.75,-187500.015625,-187500.015625,-187500.015625,-187500.015625,0.0
348,1592874741.259273,-168091.28125,-170876.71875,-171652.984375,-168243.078125,-187500.015625,-187500.015625,-187500.015625,-187500.015625,0.0
349,1592874741.259274,-168382.296875,-170877.421875,-171652.078125,-168243.671875,-187500.015625,-187500.015625,-187500.015625,-187500.015625,0.0
350,1592874741.259275,-167640.921875,-170864.96875,-171643.9375,-168230.890625,-187500.015625,-187500.015625,-187500.015625,-187500.015625,0.0
351,1592874741.259275,-167239.453125,-170858.03125,-171638.734375,-168223.515625,-187500.015625,-187500.015625,-187500.015625,-187500.015625,0.0
352,1592874741.259276,-167927.796875,-170865.25,-171641.515625,-168230.84375,-187500.015625,-187500.015625,-187500.015625,-187500.015625,0.0
353,1592874741.259276,-168411.828125,-170868.4375,-171642.015625,-168234.09375,-187500.015625,-187500.015625,-187500.015625,-187500.015625,0.0
354,1592874741.259277,-167783.125,-170855.359375,-171632.671875,-168220.609375,-187500.015625,-187500.015625,-187500.015625,-187500.015625,0.0
355,1592874741.259278,-167208.1875,-170846.9375,-171627.171875,-168211.875,-187500.015625,-187500.015625,-187500.015625,-187500.015625,0.0
356,1592874741.259281,-167756.109375,-170851.65625,-171628.21875,-168216.671875,-187500.015625,-187500.015625,-187500.015625,-187500.015625,0.0
357,1592874741.259282,-168398.75,-170855.515625,-171628.15625,-168220.46875,-187500.015625,-187500.015625,-187500.015625,-187500.015625,0.0
358,1592874741.259283,-167925.828125,-170844.703125,-171620.234375,-168209.296875,-187500.015625,-187500.015625,-187500.015625,-187500.015625,0.0
359,1592874741.320466,-167213.640625,-170831.765625,-171611.03125,-168195.90625,-187500.015625,-187500.015625,-187500.015625,-187500.015625,0.0
360,1592874741.320467,-167586.125,-170835.359375,-171611.921875,-168199.515625,-187500.015625,-187500.015625,-187500.015625,-187500.015625,0.0
361,1592874741.320468,-168341.859375,-170840.015625,-171611.96875,-168204.34375,-187500.015625,-187500.015625,-187500.015625,-187500.015625,0.0
362,1592874741.320468,-168058.375,-170833.609375,-171607.484375,-168197.671875,-187500.015625,-187500.015625,-187500.015625,-187500.015625,0.0
363,1592874741.320469,-167265.96875,-170822.328125,-171600.734375,-168185.96875,-187500.015625,-187500.015625,-187500.015625,-187500.015625,0.0
364,1592874741.32047,-167435.09375,-170822.1875,-171599.046875,-168185.859375,-187500.015625,-187500.015625,-187500.015625,-187500.015625,0.0
365,1592874741.32047,-168253.0625,-170831.375,-171603.328125,-168195.15625,-187500.015625,-187500.015625,-187500.015625,-187500.015625,0.0
366,1592874741.320471,-168174.8125,-170824.1875,-171596.59375,-168187.65625,-187500.015625,-187500.015625,-187500.015625,-187500.015625,0.0
367,1592874741.320471,-167351.78125,-170809.90625,-171587.046875,-168172.953125,-187500.015625,-187500.015625,-187500.015625,-187500.015625,0.0
368,1592874741.320472,-167307.703125,-170809.046875,-171586.015625,-168172.0,-187500.015625,-187500.015625,-187500.015625,-187500.015625,0.0
369,1592874741.320472,-168125.453125,-170818.734375,-171590.515625,-168181.84375,-187500.015625,-187500.015625,-187500.015625,-187500.015625,0.0
370,1592874741.320473,-168266.625,-170818.4375,-171589.546875,-168181.453125,-187500.015625,-187500.015625,-187500.015625,-187500.015625,0.0
371,1592874741.320474,-167475.375,-170807.0625,-171582.71875,-168169.421875,-187500.015625,-187500.015625,-187500.015625,-187500.015625,0.0
372,1592874741.320474,-167214.53125,-170799.859375,-171576.5,-168162.03125,-187500.015625,-187500.015625,-187500.015625,-187500.015625,0.0
373,1592874741.320475,-167974.453125,-170807.59375,-171579.5,-168169.953125,-187500.015625,-187500.015625,-187500.015625,-187500.015625,0.0
374,1592874741.378322,-168321.140625,-170806.21875,-171576.15625,-168168.578125,-187500.015625,-187500.015625,-187500.015625,-187500.015625,0.0
375,1592874741.378324,-167606.0,-170791.484375,-171565.59375,-168153.421875,-187500.015625,-187500.015625,-187500.015625,-187500.015625,0.0
376,1592874741.378325,-167149.421875,-170782.4375,-171558.59375,-168143.9375,-187500.015625,-187500.015625,-187500.015625,-187500.015625,0.0
377,1592874741.378326,-167801.765625,-170789.09375,-171560.9375,-168150.734375,-187500.015625,-187500.015625,-187500.015625,-187500.015625,0.0
378,1592874741.378327,-168336.078125,-170792.21875,-171561.046875,-168153.828125,-187500.015625,-187500.015625,-187500.015625,-187500.015625,0.0
379,1592874741.378328,-167748.65625,-170779.890625,-171552.40625,-168141.1875,-187500.015625,-187500.015625,-187500.015625,-187500.015625,0.0
380,1592874741.378334,-167128.703125,-170769.53125,-171545.25,-168130.46875,-187500.015625,-187500.015625,-187500.015625,-187500.015625,0.0
381,1592874741.378335,-167628.90625,-170773.609375,-171545.703125,-168134.53125,-187500.015625,-187500.015625,-187500.015625,-187500.015625,0.0
382,1592874741.378336,-168312.8125,-170780.75,-171548.96875,-168141.953125,-187500.015625,-187500.015625,-187500.015625,-187500.015625,0.0
383,1592874741.378337,-167893.203125,-170772.734375,-171543.4375,-168133.421875,-187500.015625,-187500.015625,-187500.015625,-187500.015625,0.0
384,1592874741.378338,-167153.53125,-170761.578125,-171536.265625,-168121.90625,-187500.015625,-187500.015625,-187500.015625,-187500.015625,0.0
385,1592874741.378339,-167469.234375,-170763.796875,-171536.171875,-168124.15625,-187500.015625,-187500.015625,-187500.015625,-187500.015625,0.0
386,1592874741.37834,-168248.75,-170769.40625,-171537.09375,-168129.8125,-187500.015625,-187500.015625,-187500.015625,-187500.015625,0.0
387,1592874741.378341,-168021.71875,-170761.78125,-171530.96875,-168121.96875,-187500.015625,-187500.015625,-187500.015625,-187500.015625,0.0
388,1592874741.378342,-167212.8125,-170748.234375,-171521.890625,-168107.953125,-187500.015625,-187500.015625,-187500.015625,-187500.015625,0.0
389,1592874741.438609,-167319.78125,-170746.359375,-171518.828125,-168106.0625,-187500.015625,-187500.015625,-187500.015625,-187500.015625,0.0
390,1592874741.438612,-168145.75,-170757.421875,-171524.78125,-168117.234375,-187500.015625,-187500.015625,-187500.015625,-187500.015625,0.0
391,1592874741.438613,-168134.75,-170756.21875,-171523.796875,-168115.78125,-187500.015625,-187500.015625,-187500.015625,-187500.015625,0.0
392,1592874741.438614,-167315.0,-170742.984375,-171515.234375,-168102.0625,-187500.015625,-187500.015625,-187500.015625,-187500.015625,0.0
393,1592874741.438615,-167207.140625,-170739.78125,-171512.078125,-168098.640625,-187500.015625,-187500.015625,-187500.015625,-187500.015625,0.0
394,1592874741.438616,-168012.453125,-170747.40625,-171514.625,-168106.453125,-187500.015625,-187500.015625,-187500.015625,-187500.015625,0.0
395,1592874741.438617,-168212.71875,-170745.75,-171511.90625,-168104.578125,-187500.015625,-187500.015625,-187500.015625,-187500.015625,0.0
396,1592874741.438618,-167439.421875,-170734.78125,-171505.515625,-168093.1875,-187500.015625,-187500.015625,-187500.015625,-187500.015625,0.0
397,1592874741.438619,-167119.984375,-170726.890625,-171498.921875,-168085.109375,-187500.015625,-187500.015625,-187500.015625,-187500.015625,0.0
398,1592874741.43862,-167854.265625,-170734.515625,-171501.796875,-168092.84375,-187500.015625,-187500.015625,-187500.015625,-187500.015625,0.0
399,1592874741.438621,-168261.09375,-170737.171875,-171502.15625,-168095.578125,-187500.015625,-187500.015625,-187500.015625,-187500.015625,0.0
400,1592874741.438622,-167581.28125,-170726.34375,-171495.453125,-168084.359375,-187500.015625,-187500.015625,-187500.015625,-187500.015625,0.0
401,1592874741.438623,-167072.984375,-170716.828125,-171488.4375,-168074.3125,-187500.015625,-187500.015625,-187500.015625,-187500.015625,0.0
402,1592874741.438624,-167684.59375,-170721.640625,-171489.265625,-168079.375,-187500.015625,-187500.015625,-187500.015625,-187500.015625,0.0
403,1592874741.438633,-168267.921875,-170727.3125,-171491.65625,-168085.140625,-187500.015625,-187500.015625,-187500.015625,-187500.015625,0.0
404,1592874741.499298,-167728.734375,-170719.796875,-171487.421875,-168077.25,-187500.015625,-187500.015625,-187500.015625,-187500.015625,0.0
405,1592874741.4993,-167069.34375,-170709.515625,-171480.65625,-168066.609375,-187500.015625,-187500.015625,-187500.015625,-187500.015625,0.0
406,1592874741.499302,-167518.734375,-170712.5625,-171480.4375,-168069.625,-187500.015625,-187500.015625,-187500.015625,-187500.015625,0.0
407,1592874741.499303,-168234.59375,-170717.5,-171481.0625,-168074.609375,-187500.015625,-187500.015625,-187500.015625,-187500.015625,0.0
408,1592874741.499304,-167865.484375,-170706.171875,-171471.9375,-168062.921875,-187500.015625,-187500.015625,-187500.015625,-187500.015625,0.0
409,1592874741.499305,-167095.0625,-170690.140625,-171460.203125,-168046.59375,-187500.015625,-187500.015625,-187500.015625,-187500.015625,0.0
410,1592874741.499306,-167350.875,-170690.359375,-171458.453125,-168046.796875,-187500.015625,-187500.015625,-187500.015625,-187500.015625,0.0
411,1592874741.499307,-168150.296875,-170698.09375,-171461.28125,-168054.671875,-187500.015625,-187500.015625,-187500.015625,-187500.015625,0.0
412,1592874741.499308,-167984.015625,-170692.21875,-171456.40625,-168048.484375,-187500.015625,-187500.015625,-187500.015625,-187500.015625,0.0
413,1592874741.499309,-167164.171875,-170676.546875,-171445.25,-168032.203125,-187500.015625,-187500.015625,-187500.015625,-187500.015625,0.0
414,1592874741.49931,-167212.703125,-170677.828125,-171445.828125,-168033.5,-187500.015625,-187500.015625,-187500.015625,-187500.015625,0.0
415,1592874741.499311,-168038.75,-170688.0625,-171451.078125,-168044.0,-187500.015625,-187500.015625,-187500.015625,-187500.015625,0.0
416,1592874741.499312,-168091.078125,-170687.84375,-171450.75,-168043.625,-187500.015625,-187500.015625,-187500.015625,-187500.015625,0.0
417,1592874741.499313,-167277.609375,-170673.90625,-171441.296875,-168029.03125,-187500.015625,-187500.015625,-187500.015625,-187500.015625,0.0
418,1592874741.499314,-167105.640625,-170668.34375,-171436.125,-168023.3125,-187500.015625,-187500.015625,-187500.015625,-187500.015625,0.0
419,1592874741.559206,-167897.046875,-170677.421875,-171440.203125,-168032.453125,-187500.015625,-187500.015625,-187500.015625,-187500.015625,0.0
420,1592874741.559208,-168160.703125,-170678.609375,-171440.09375,-168033.609375,-187500.015625,-187500.015625,-187500.015625,-187500.015625,0.0
421,1592874741.559209,-167407.71875,-170665.671875,-171431.53125,-168020.34375,-187500.015625,-187500.015625,-187500.015625,-187500.015625,0.0
422,1592874741.55921,-167030.578125,-170657.375,-171424.90625,-168011.828125,-187500.015625,-187500.015625,-187500.015625,-187500.015625,0.0
423,1592874741.559211,-167733.078125,-170663.609375,-171426.625,-168018.1875,-187500.015625,-187500.015625,-187500.015625,-187500.015625,0.0
424,1592874741.559212,-168195.0625,-170666.5,-171426.90625,-168021.046875,-187500.015625,-187500.015625,-187500.015625,-187500.015625,0.0
425,1592874741.559213,-167550.4375,-170654.734375,-171418.984375,-168008.921875,-187500.015625,-187500.015625,-187500.015625,-187500.015625,0.0
426,1592874741.559218,-166991.421875,-170643.421875,-171410.40625,-167997.1875,-187500.015625,-187500.015625,-187500.015625,-187500.015625,0.0
427,1592874741.559219,-167561.09375,-170649.734375,-171412.921875,-168003.546875,-187500.015625,-187500.015625,-187500.015625,-187500.015625,0.0
428,1592874741.55922,-168189.09375,-170656.453125,-171416.015625,-168010.34375,-187500.015625,-187500.015625,-187500.015625,-187500.015625,0.0
429,1592874741.559221,-167695.4375,-170647.046875,-171409.53125,-168000.515625,-187500.015625,-187500.015625,-187500.015625,-187500.015625,0.0
430,1592874741.559222,-166999.75,-170636.265625,-171402.46875,-167989.40625,-187500.015625,-187500.015625,-187500.015625,-187500.015625,0.0
431,1592874741.559223,-167396.4375,-170639.78125,-171403.03125,-167992.828125,-187500.015625,-187500.015625,-187500.015625,-187500.015625,0.0
432,1592874741.559224,-168143.359375,-170646.4375,-171405.28125,-167999.640625,-187500.015625,-187500.015625,-187500.015625,-187500.015625,0.0
433,1592874741.559225,-167834.375,-170638.9375,-171399.734375,-167991.8125,-187500.015625,-187500.015625,-187500.015625,-187500.015625,0.0
434,1592874741.620518,-167045.640625,-170625.125,-171390.40625,-167977.796875,-187500.015625,-187500.015625,-187500.015625,-187500.015625,0.0
435,1592874741.620521,-167240.890625,-170624.828125,-171388.390625,-167977.359375,-187500.015625,-187500.015625,-187500.015625,-187500.015625,0.0
436,1592874741.620522,-168052.4375,-170632.671875,-171391.1875,-167985.265625,-187500.015625,-187500.015625,-187500.015625,-187500.015625,0.0
437,1592874741.620523,-167949.59375,-170628.9375,-171388.296875,-167981.25,-187500.015625,-187500.015625,-187500.015625,-187500.015625,0.0
438,1592874741.620524,-167128.703125,-170615.421875,-171379.375,-167967.234375,-187500.015625,-187500.015625,-187500.015625,-187500.015625,0.0
439,1592874741.620525,-167108.0,-170610.171875,-171373.640625,-167961.859375,-187500.015625,-187500.015625,-187500.015625,-187500.015625,0.0
440,1592874741.620526,-167926.609375,-170618.421875,-171376.734375,-167970.203125,-187500.015625,-187500.015625,-187500.015625,-187500.015625,0.0
441,1592874741.620527,-168042.171875,-170618.859375,-171376.671875,-167970.578125,-187500.015625,-187500.015625,-187500.015625,-187500.015625,0.0
442,1592874741.620528,-167242.71875,-170605.3125,-171367.6875,-167956.515625,-187500.015625,-187500.015625,-187500.015625,-187500.015625,0.0
443,1592874741.620529,-167008.96875,-170598.953125,-171362.125,-167949.921875,-187500.015625,-187500.015625,-187500.015625,-187500.015625,0.0
444,1592874741.62053,-167776.296875,-170605.859375,-171364.203125,-167957.03125,-187500.015625,-187500.015625,-187500.015625,-187500.015625,0.0
445,1592874741.620531,-168099.390625,-170607.6875,-171364.203125,-167958.640625,-187500.015625,-187500.015625,-187500.015625,-187500.015625,0.0
446,1592874741.620532,-167376.421875,-170595.859375,-171356.765625,-167946.53125,-187500.015625,-187500.015625,-187500.015625,-187500.015625,0.0
447,1592874741.620533,-166945.421875,-170587.546875,-171350.5,-167938.0,-187500.015625,-187500.015625,-187500.015625,-187500.015625,0.0
448,1592874741.620534,-167609.3125,-170592.828125,-171351.375,-167943.359375,-187500.015625,-187500.015625,-187500.015625,-187500.015625,0.0
449,1592874741.678311,-168119.28125,-170594.71875,-171350.296875,-167945.234375,-187500.015625,-187500.015625,-187500.015625,-187500.015625,0.0
450,1592874741.678313,-167516.953125,-170582.671875,-171341.921875,-167932.765625,-187500.015625,-187500.015625,-187500.015625,-187500.015625,0.0
451,1592874741.678314,-166919.609375,-170574.8125,-171337.21875,-167924.53125,-187500.015625,-187500.015625,-187500.015625,-187500.015625,0.0
452,1592874741.678315,-167440.734375,-170581.90625,-171340.734375,-167931.75,-187500.015625,-187500.015625,-187500.015625,-187500.015625,0.0
453,1592874741.678316,-168102.859375,-170585.84375,-171340.890625,-167935.84375,-187500.015625,-187500.015625,-187500.015625,-187500.015625,0.0
454,1592874741.678317,-167662.484375,-170576.75,-171334.515625,-167926.34375,-187500.015625,-187500.015625,-187500.015625,-187500.015625,0.0
455,1592874741.678318,-166939.0,-170566.0625,-171327.59375,-167915.109375,-187500.015625,-187500.015625,-187500.015625,-187500.015625,0.0
456,1592874741.678319,-167276.34375,-170568.125,-171327.046875,-167917.234375,-187500.015625,-187500.015625,-187500.015625,-187500.015625,0.0
457,1592874741.67832,-168040.984375,-170572.4375,-171326.78125,-167921.78125,-187500.015625,-187500.015625,-187500.015625,-187500.015625,0.0
458,1592874741.678321,-167791.203125,-170565.4375,-171321.4375,-167914.5,-187500.015625,-187500.015625,-187500.015625,-187500.015625,0.0
459,1592874741.678322,-166993.59375,-170552.953125,-171313.28125,-167901.453125,-187500.015625,-187500.015625,-187500.015625,-187500.015625,0.0
460,1592874741.678324,-167125.328125,-170550.546875,-171309.546875,-167898.9375,-187500.015625,-187500.015625,-187500.015625,-187500.015625,0.0
461,1592874741.678325,-167942.078125,-170559.3125,-171313.390625,-167907.90625,-187500.015625,-187500.015625,-187500.015625,-187500.015625,0.0
462,1592874741.678326,-167900.359375,-170554.25,-171308.71875,-167902.59375,-187500.015625,-187500.015625,-187500.015625,-187500.015625,0.0
463,1592874741.678327,-167084.359375,-170541.28125,-171300.453125,-167889.21875,-187500.015625,-187500.015625,-187500.015625,-187500.015625,0.0
464,1592874741.73906,-167005.328125,-170539.875,-171299.046875,-167887.796875,-187500.015625,-187500.015625,-187500.015625,-187500.015625,0.0
465,1592874741.739062,-167812.171875,-170548.59375,-171302.6875,-167896.578125,-187500.015625,-187500.015625,-187500.015625,-187500.015625,0.0
466,1592874741.739063,-167985.453125,-170546.375,-171299.5,-167894.203125,-187500.015625,-187500.015625,-187500.015625,-187500.015625,0.0
467,1592874741.739064,-167203.65625,-170530.421875,-171288.140625,-167877.796875,-187500.015625,-187500.015625,-187500.015625,-187500.015625,0.0
468,1592874741.739065,-166913.203125,-170525.609375,-171284.578125,-167872.875,-187500.015625,-187500.015625,-187500.015625,-187500.015625,0.0
469,1592874741.739066,-167655.75,-170534.859375,-171289.03125,-167882.265625,-187500.015625,-187500.015625,-187500.015625,-187500.015625,0.0
470,1592874741.739067,-168034.0,-170535.09375,-171287.0625,-167882.421875,-187500.015625,-187500.015625,-187500.015625,-187500.015625,0.0
471,1592874741.739068,-167342.09375,-170521.65625,-171277.703125,-167868.609375,-187500.015625,-187500.015625,-187500.015625,-187500.015625,0.0
472,1592874741.739069,-166858.8125,-170512.640625,-171271.015625,-167859.1875,-187500.015625,-187500.015625,-187500.015625,-187500.015625,0.0
473,1592874741.739074,-167486.28125,-170520.625,-171274.90625,-167867.3125,-187500.015625,-187500.015625,-187500.015625,-187500.015625,0.0
474,1592874741.739075,-168047.25,-170525.515625,-171276.625,-167872.34375,-187500.015625,-187500.015625,-187500.015625,-187500.015625,0.0
475,1592874741.739076,-167489.90625,-170514.796875,-171269.09375,-167861.125,-187500.015625,-187500.015625,-187500.015625,-187500.015625,0.0
476,1592874741.739077,-166851.78125,-170507.015625,-171264.578125,-167852.859375,-187500.015625,-187500.015625,-187500.015625,-187500.015625,0.0
477,1592874741.739078,-167319.1875,-170510.28125,-171264.578125,-167856.09375,-187500.015625,-187500.015625,-187500.015625,-187500.015625,0.0
478,1592874741.739079,-168017.59375,-170515.796875,-171266.03125,-167861.734375,-187500.015625,-187500.015625,-187500.015625,-187500.015625,0.0
479,1592874741.799356,-167630.453125,-170506.96875,-171259.59375,-167852.59375,-187500.015625,-187500.015625,-187500.015625,-187500.015625,0.0
480,1592874741.799359,-166873.625,-170489.3125,-171246.03125,-167834.5,-187500.015625,-187500.015625,-187500.015625,-187500.015625,0.0
481,1592874741.79936,-167150.875,-170488.859375,-171243.375,-167834.03125,-187500.015625,-187500.015625,-187500.015625,-187500.015625,0.0
482,1592874741.799361,-167939.265625,-170496.953125,-171246.671875,-167842.1875,-187500.015625,-187500.015625,-187500.015625,-187500.015625,0.0
483,1592874741.799362,-167751.21875,-170491.640625,-171242.5625,-167836.5,-187500.015625,-187500.015625,-187500.015625,-187500.015625,0.0
484,1592874741.799363,-166943.40625,-170480.453125,-171235.953125,-167824.84375,-187500.015625,-187500.015625,-187500.015625,-187500.015625,0.0
485,1592874741.799364,-167016.28125,-170481.4375,-171235.96875,-167825.921875,-187500.015625,-187500.015625,-187500.015625,-187500.015625,0.0
486,1592874741.799365,-167834.03125,-170488.734375,-171238.3125,-167833.390625,-187500.015625,-187500.015625,-187500.015625,-187500.015625,0.0
487,1592874741.799366,-167857.953125,-170487.046875,-171236.5,-167831.390625,-187500.015625,-187500.015625,-187500.015625,-187500.015625,0.0
488,1592874741.799367,-167045.9375,-170472.296875,-171226.34375,-167816.046875,-187500.015625,-187500.015625,-187500.015625,-187500.015625,0.0
489,1592874741.799368,-166902.546875,-170468.96875,-171223.28125,-167812.625,-187500.015625,-187500.015625,-187500.015625,-187500.015625,0.0
490,1592874741.799369,-167695.359375,-170477.0625,-171226.375,-167820.890625,-187500.015625,-187500.015625,-187500.015625,-187500.015625,0.0
491,1592874741.79937,-167932.671875,-170476.546875,-171224.734375,-167820.375,-187500.015625,-187500.015625,-187500.015625,-187500.015625,0.0
492,1592874741.799371,-167173.703125,-170462.984375,-171215.65625,-167806.40625,-187500.015625,-187500.015625,-187500.015625,-187500.015625,0.0
493,1592874741.799372,-166820.609375,-170454.21875,-171208.359375,-167797.3125,-187500.015625,-187500.015625,-187500.015625,-187500.015625,0.0
494,1592874741.858425,-167530.140625,-170459.109375,-171208.59375,-167802.265625,-187500.015625,-187500.015625,-187500.015625,-187500.015625,0.0
495,1592874741.858428,-167967.1875,-170463.09375,-171210.15625,-167806.234375,-187500.015625,-187500.015625,-187500.015625,-187500.015625,0.0
496,1592874741.858433,-167313.390625,-170453.21875,-171204.25,-167796.03125,-187500.015625,-187500.015625,-187500.015625,-187500.015625,0.0
497,1592874741.858433,-166779.6875,-170443.265625,-171196.9375,-167785.75,-187500.015625,-187500.015625,-187500.015625,-187500.015625,0.0
498,1592874741.858434,-167361.40625,-170447.15625,-171196.96875,-167789.625,-187500.015625,-187500.015625,-187500.015625,-187500.015625,0.0
499,1592874741.858435,-167965.890625,-170451.3125,-171197.609375,-167793.78125,-187500.015625,-187500.015625,-187500.015625,-187500.015625,0.0
500,1592874741.858436,-167455.46875,-170441.703125,-171191.046875,-167783.71875,-187500.015625,-187500.015625,-187500.015625,-187500.015625,0.0
501,1592874741.858438,-166776.796875,-170429.59375,-171182.5,-167771.234375,-187500.015625,-187500.015625,-187500.015625,-187500.015625,0.0
502,1592874741.858439,-167192.265625,-170432.671875,-171182.59375,-167774.40625,-187500.015625,-187500.015625,-187500.015625,-187500.015625,0.0
503,1592874741.85844,-167924.453125,-170441.03125,-171186.53125,-167782.875,-187500.015625,-187500.015625,-187500.015625,-187500.015625,0.0
504,1592874741.858441,-167588.90625,-170429.03125,-171176.78125,-167770.671875,-187500.015625,-187500.015625,-187500.015625,-187500.015625,0.0
505,1592874741.858442,-166815.046875,-170416.3125,-171168.46875,-167757.53125,-187500.015625,-187500.015625,-187500.015625,-187500.015625,0.0
506,1592874741.858443,-167037.78125,-170420.109375,-171170.296875,-167761.234375,-187500.015625,-187500.015625,-187500.015625,-187500.015625,0.0
507,1592874741.858444,-167839.9375,-170427.328125,-171172.609375,-167768.546875,-187500.015625,-187500.015625,-187500.015625,-187500.015625,0.0
508,1592874741.858445,-167710.859375,-170421.1875,-171167.46875,-167762.21875,-187500.015625,-187500.015625,-187500.015625,-187500.015625,0.0
509,1592874741.918726,-166895.5,-170407.703125,-171158.4375,-167748.1875,-187500.015625,-187500.015625,-187500.015625,-187500.015625,0.0
510,1592874741.918729,-166905.359375,-170407.703125,-171157.765625,-167748.078125,-187500.015625,-187500.015625,-187500.015625,-187500.015625,0.0
511,1592874741.91873,-167722.234375,-170415.796875,-171160.84375,-167756.5,-187500.015625,-187500.015625,-187500.015625,-187500.015625,0.0
512,1592874741.918731,-167807.96875,-170413.1875,-171157.890625,-167753.65625,-187500.015625,-187500.015625,-187500.015625,-187500.015625,0.0
513,1592874741.918732,-167004.5,-170397.0,-171146.3125,-167736.921875,-187500.015625,-187500.015625,-187500.015625,-187500.015625,0.0
514,1592874741.918733,-166797.03125,-170390.78125,-171140.6875,-167730.40625,-187500.015625,-187500.015625,-187500.015625,-187500.015625,0.0
515,1592874741.918734,-167571.40625,-170398.984375,-171144.03125,-167738.796875,-187500.015625,-187500.015625,-187500.015625,-187500.015625,0.0
516,1592874741.918735,-167870.0,-170401.015625,-171144.46875,-167740.8125,-187500.015625,-187500.015625,-187500.015625,-187500.015625,0.0
517,1592874741.918736,-167136.84375,-170388.078125,-171135.765625,-167727.28125,-187500.015625,-187500.015625,-187500.015625,-187500.015625,0.0
518,1592874741.918737,-166730.390625,-170380.859375,-171130.46875,-167719.84375,-187500.015625,-187500.015625,-187500.015625,-187500.015625,0.0
519,1592874741.918742,-167409.21875,-170387.609375,-171132.703125,-167726.71875,-187500.015625,-187500.015625,-187500.015625,-187500.015625,0.0
520,1592874741.918743,-167899.0625,-170391.5625,-171133.828125,-167730.703125,-187500.015625,-187500.015625,-187500.015625,-187500.015625,0.0
521,1592874741.918744,-167281.359375,-170379.984375,-171125.9375,-167718.71875,-187500.015625,-187500.015625,-187500.015625,-187500.015625,0.0
522,1592874741.918745,-166699.734375,-170368.1875,-171117.109375,-167706.609375,-187500.015625,-187500.015625,-187500.015625,-187500.015625,0.0
523,1592874741.918746,-167236.6875,-170371.859375,-171117.265625,-167710.40625,-187500.015625,-187500.015625,-187500.015625,-187500.015625,0.0
524,1592874741.978373,-167884.6875,-170378.984375,-171120.5625,-167717.53125,-187500.015625,-187500.015625,-187500.015625,-187500.015625,0.0
525,1592874741.978376,-167424.703125,-170371.40625,-171115.734375,-167709.5625,-187500.015625,-187500.015625,-187500.015625,-187500.015625,0.0
526,1592874741.978377,-166713.46875,-170359.375,-171107.375,-167697.015625,-187500.015625,-187500.015625,-187500.015625,-187500.015625,0.0
527,1592874741.978378,-167075.53125,-170362.671875,-171108.0,-167700.296875,-187500.015625,-187500.015625,-187500.015625,-187500.015625,0.0
528,1592874741.978379,-167830.5,-170367.3125,-171108.125,-167705.15625,-187500.015625,-187500.015625,-187500.015625,-187500.015625,0.0
529,1592874741.97838,-167555.390625,-170359.671875,-171102.234375,-167697.203125,-187500.015625,-187500.015625,-187500.015625,-187500.015625,0.0
530,1592874741.978381,-166766.15625,-170349.25,-171096.359375,-167686.421875,-187500.015625,-187500.015625,-187500.015625,-187500.015625,0.0
531,1592874741.978382,-166922.6875,-170346.125,-171091.671875,-167683.234375,-187500.015625,-187500.015625,-187500.015625,-187500.015625,0.0
532,1592874741.978383,-167734.34375,-170352.921875,-171093.359375,-167689.953125,-187500.015625,-187500.015625,-187500.015625,-187500.015625,0.0
533,1592874741.978384,-167667.578125,-170348.671875,-171089.71875,-167685.46875,-187500.015625,-187500.015625,-187500.015625,-187500.015625,0.0
534,1592874741.978385,-166853.046875,-170337.4375,-171083.0625,-167673.75,-187500.015625,-187500.015625,-187500.015625,-187500.015625,0.0
535,1592874741.978386,-166799.1875,-170334.796875,-171080.171875,-167671.03125,-187500.015625,-187500.015625,-187500.015625,-187500.015625,0.0
536,1592874741.978387,-167607.171875,-170340.875,-171081.296875,-167677.390625,-187500.015625,-187500.015625,-187500.015625,-187500.015625,0.0
537,1592874741.978388,-167755.25,-170340.0625,-171079.75,-167676.453125,-187500.015625,-187500.015625,-187500.015625,-187500.015625,0.0
538,1592874741.978389,-166970.703125,-170328.53125,-171072.796875,-167664.5,-187500.015625,-187500.015625,-187500.015625,-187500.015625,0.0
539,1592874742.038647,-166706.59375,-170324.46875,-171069.78125,-167660.234375,-187500.015625,-187500.015625,-187500.015625,-187500.015625,0.0
540,1592874742.03865,-167457.234375,-170331.234375,-171071.640625,-167666.984375,-187500.015625,-187500.015625,-187500.015625,-187500.015625,0.0
541,1592874742.038651,-167812.9375,-170333.5625,-171071.90625,-167669.140625,-187500.015625,-187500.015625,-187500.015625,-187500.015625,0.0
542,1592874742.038657,-167107.203125,-170319.375,-171061.84375,-167654.484375,-187500.015625,-187500.015625,-187500.015625,-187500.015625,0.0
543,1592874742.038658,-166646.46875,-170309.25,-171053.9375,-167644.0625,-187500.015625,-187500.015625,-187500.015625,-187500.015625,0.0
544,1592874742.038659,-167289.125,-170316.0,-171056.484375,-167650.96875,-187500.015625,-187500.015625,-187500.015625,-187500.015625,0.0
545,1592874742.03866,-167827.375,-170320.75,-171058.234375,-167655.828125,-187500.015625,-187500.015625,-187500.015625,-187500.015625,0.0
546,1592874742.038661,-167250.71875,-170309.640625,-171050.546875,-167644.3125,-187500.015625,-187500.015625,-187500.015625,-187500.015625,0.0
547,1592874742.038662,-166626.765625,-170297.5625,-171041.78125,-167631.890625,-187500.015625,-187500.015625,-187500.015625,-187500.015625,0.0
548,1592874742.038663,-167117.03125,-170302.09375,-171042.890625,-167636.421875,-187500.015625,-187500.015625,-187500.015625,-187500.015625,0.0
549,1592874742.038664,-167799.328125,-170306.578125,-171043.390625,-167641.0,-187500.015625,-187500.015625,-187500.015625,-187500.015625,0.0
550,1592874742.038665,-167388.875,-170297.421875,-171036.75,-167631.46875,-187500.015625,-187500.015625,-187500.015625,-187500.015625,0.0
551,1592874742.038666,-166649.734375,-170285.546875,-171028.765625,-167619.0625,-187500.015625,-187500.015625,-187500.015625,-187500.015625,0.0
552,1592874742.038667,-166955.4375,-170287.859375,-171028.65625,-167621.359375,-187500.015625,-187500.015625,-187500.015625,-187500.015625,0.0
553,1592874742.038668,-167735.109375,-170296.796875,-171033.0,-167630.484375,-187500.015625,-187500.015625,-187500.015625,-187500.015625,0.0
554,1592874742.099313,-167521.78125,-170293.0625,-171030.765625,-167626.5,-187500.015625,-187500.015625,-187500.015625,-187500.015625,0.0
555,1592874742.099316,-166718.375,-170281.21875,-171023.34375,-167614.09375,-187500.015625,-187500.015625,-187500.015625,-187500.015625,0.0
556,1592874742.099317,-166815.515625,-170279.671875,-171020.671875,-167612.46875,-187500.015625,-187500.015625,-187500.015625,-187500.015625,0.0
557,1592874742.099318,-167634.25,-170288.75,-171024.71875,-167621.65625,-187500.015625,-187500.015625,-187500.015625,-187500.015625,0.0
558,1592874742.099319,-167630.5625,-170286.140625,-171022.265625,-167618.828125,-187500.015625,-187500.015625,-187500.015625,-187500.015625,0.0
559,1592874742.09932,-166817.5,-170272.796875,-171013.609375,-167605.109375,-187500.015625,-187500.015625,-187500.015625,-187500.015625,0.0
560,1592874742.099321,-166699.78125,-170268.25,-171009.125,-167600.34375,-187500.015625,-187500.015625,-187500.015625,-187500.015625,0.0
561,1592874742.099322,-167494.375,-170272.46875,-171008.25,-167604.6875,-187500.015625,-187500.015625,-187500.015625,-187500.015625,0.0
562,1592874742.099323,-167701.0,-170269.4375,-171004.1875,-167601.671875,-187500.015625,-187500.015625,-187500.015625,-187500.015625,0.0
563,1592874742.099324,-166934.015625,-170256.578125,-170995.828125,-167588.28125,-187500.015625,-187500.015625,-187500.015625,-187500.015625,0.0
564,1592874742.099325,-166612.421875,-170252.921875,-170993.5625,-167584.390625,-187500.015625,-187500.015625,-187500.015625,-187500.015625,0.0
565,1592874742.099326,-167338.203125,-170261.296875,-170997.296875,-167592.71875,-187500.015625,-187500.015625,-187500.015625,-187500.015625,0.0
566,1592874742.099331,-167749.203125,-170263.359375,-170997.078125,-167594.84375,-187500.015625,-187500.015625,-187500.015625,-187500.015625,0.0
567,1592874742.099332,-167078.4375,-170252.03125,-170989.59375,-167583.09375,-187500.015625,-187500.015625,-187500.015625,-187500.015625,0.0
568,1592874742.099333,-166567.921875,-170243.0625,-170983.1875,-167573.890625,-187500.015625,-187500.015625,-187500.015625,-187500.015625,0.0
569,1592874742.158323,-167168.953125,-170247.515625,-170983.734375,-167578.4375,-187500.015625,-187500.015625,-187500.015625,-187500.015625,0.0
570,1592874742.158325,-167752.0,-170250.578125,-170983.265625,-167581.53125,-187500.015625,-187500.015625,-187500.015625,-187500.015625,0.0
571,1592874742.158326,-167220.703125,-170240.875,-170976.78125,-167571.328125,-187500.015625,-187500.015625,-187500.015625,-187500.015625,0.0
572,1592874742.158328,-166559.515625,-170229.6875,-170969.203125,-167559.828125,-187500.015625,-187500.015625,-187500.015625,-187500.015625,0.0
573,1592874742.158328,-166998.796875,-170233.09375,-170969.421875,-167563.328125,-187500.015625,-187500.015625,-187500.015625,-187500.015625,0.0
574,1592874742.158329,-167715.4375,-170239.46875,-170971.453125,-167569.8125,-187500.015625,-187500.015625,-187500.015625,-187500.015625,0.0
575,1592874742.15833,-167359.90625,-170232.265625,-170966.46875,-167562.28125,-187500.015625,-187500.015625,-187500.015625,-187500.015625,0.0
576,1592874742.158331,-166595.171875,-170218.75,-170957.15625,-167548.25,-187500.015625,-187500.015625,-187500.015625,-187500.015625,0.0
577,1592874742.158332,-166840.703125,-170218.515625,-170954.9375,-167547.9375,-187500.015625,-187500.015625,-187500.015625,-187500.015625,0.0
578,1592874742.158333,-167637.203125,-170226.984375,-170958.5625,-167556.53125,-187500.015625,-187500.015625,-187500.015625,-187500.015625,0.0
579,1592874742.158334,-167479.9375,-170220.578125,-170953.328125,-167549.921875,-187500.015625,-187500.015625,-187500.015625,-187500.015625,0.0
580,1592874742.158336,-166667.3125,-170207.078125,-170944.4375,-167535.96875,-187500.015625,-187500.015625,-187500.015625,-187500.015625,0.0
581,1592874742.158337,-166705.09375,-170206.5625,-170943.03125,-167535.296875,-187500.015625,-187500.015625,-187500.015625,-187500.015625,0.0
582,1592874742.158338,-167524.015625,-170215.75,-170947.046875,-167544.609375,-187500.015625,-187500.015625,-187500.015625,-187500.015625,0.0
583,1592874742.158339,-167580.09375,-170211.75,-170942.890625,-167540.46875,-187500.015625,-187500.015625,-187500.015625,-187500.015625,0.0
584,1592874742.218148,-166774.3125,-170197.84375,-170933.59375,-167526.03125,-187500.015625,-187500.015625,-187500.015625,-187500.015625,0.0
585,1592874742.218151,-166594.671875,-170191.78125,-170927.96875,-167519.75,-187500.015625,-187500.015625,-187500.015625,-187500.015625,0.0
586,1592874742.218152,-167378.34375,-170200.453125,-170931.765625,-167528.828125,-187500.015625,-187500.015625,-187500.015625,-187500.015625,0.0
587,1592874742.218153,-167647.71875,-170200.4375,-170930.3125,-167528.671875,-187500.015625,-187500.015625,-187500.015625,-187500.015625,0.0
588,1592874742.218154,-166900.671875,-170185.265625,-170919.5625,-167512.9375,-187500.015625,-187500.015625,-187500.015625,-187500.015625,0.0
589,1592874742.218159,-166520.984375,-170179.671875,-170915.71875,-167507.125,-187500.015625,-187500.015625,-187500.015625,-187500.015625,0.0
590,1592874742.218159,-167217.546875,-170189.03125,-170920.59375,-167516.640625,-187500.015625,-187500.015625,-187500.015625,-187500.015625,0.0
591,1592874742.21816,-167683.46875,-170192.75,-170921.53125,-167520.21875,-187500.015625,-187500.015625,-187500.015625,-187500.015625,0.0
592,1592874742.218162,-167048.171875,-170180.71875,-170913.296875,-167507.921875,-187500.015625,-187500.015625,-187500.015625,-187500.015625,0.0
593,1592874742.218163,-166489.125,-170169.09375,-170904.40625,-167495.9375,-187500.015625,-187500.015625,-187500.015625,-187500.015625,0.0
594,1592874742.218164,-167047.515625,-170173.5625,-170905.234375,-167500.484375,-187500.015625,-187500.015625,-187500.015625,-187500.015625,0.0
595,1592874742.218165,-167672.515625,-170177.421875,-170905.40625,-167504.34375,-187500.015625,-187500.015625,-187500.015625,-187500.015625,0.0
596,1592874742.218166,-167185.703125,-170165.484375,-170896.296875,-167491.9375,-187500.015625,-187500.015625,-187500.015625,-187500.015625,0.0
597,1592874742.218167,-166490.984375,-170155.53125,-170890.1875,-167481.59375,-187500.015625,-187500.015625,-187500.015625,-187500.015625,0.0
598,1592874742.218168,-166877.921875,-170158.859375,-170890.75,-167485.015625,-187500.015625,-187500.015625,-187500.015625,-187500.015625,0.0
599,1592874742.278975,-167623.609375,-170166.0,-170893.3125,-167492.328125,-187500.015625,-187500.015625,-187500.015625,-187500.015625,0.0
600,1592874742.278978,-167322.84375,-170158.328125,-170887.53125,-167484.390625,-187500.015625,-187500.015625,-187500.015625,-187500.015625,0.0
601,1592874742.278979,-166538.46875,-170145.40625,-170878.953125,-167471.015625,-187500.015625,-187500.015625,-187500.015625,-187500.015625,0.0
602,1592874742.27898,-166725.65625,-170145.625,-170877.5,-167471.09375,-187500.015625,-187500.015625,-187500.015625,-187500.015625,0.0
603,1592874742.278981,-167532.953125,-170151.78125,-170878.765625,-167477.34375,-187500.015625,-187500.015625,-187500.015625,-187500.015625,0.0
604,1592874742.278982,-167437.84375,-170147.546875,-170875.234375,-167472.828125,-187500.015625,-187500.015625,-187500.015625,-187500.015625,0.0
605,1592874742.278983,-166624.46875,-170137.578125,-170869.84375,-167462.421875,-187500.015625,-187500.015625,-187500.015625,-187500.015625,0.0
606,1592874742.278984,-166599.765625,-170135.5,-170867.375,-167460.3125,-187500.015625,-187500.015625,-187500.015625,-187500.015625,0.0
607,1592874742.278985,-167414.1875,-170143.328125,-170870.09375,-167468.25,-187500.015625,-187500.015625,-187500.015625,-187500.015625,0.0
608,1592874742.278986,-167533.0,-170140.359375,-170866.546875,-167465.078125,-187500.015625,-187500.015625,-187500.015625,-187500.015625,0.0
609,1592874742.278987,-166737.296875,-170126.46875,-170857.265625,-167450.796875,-187500.015625,-187500.015625,-187500.015625,-187500.015625,0.0
610,1592874742.278989,-166497.609375,-170120.3125,-170851.921875,-167444.421875,-187500.015625,-187500.015625,-187500.015625,-187500.015625,0.0
611,1592874742.27899,-167259.8125,-170125.921875,-170852.75,-167450.125,-187500.015625,-187500.015625,-187500.015625,-187500.015625,0.0
612,1592874742.278994,-167587.71875,-170126.546875,-170851.5625,-167450.640625,-187500.015625,-187500.015625,-187500.015625,-187500.015625,0.0
613,1592874742.278995,-166866.203125,-170112.34375,-170841.578125,-167436.0,-187500.015625,-187500.015625,-187500.015625,-187500.015625,0.0
614,1592874742.33874,-166430.640625,-170105.421875,-170836.59375,-167428.703125,-187500.015625,-187500.015625,-187500.015625,-187500.015625,0.0
615,1592874742.338743,-167094.640625,-170113.28125,-170840.046875,-167436.734375,-187500.015625,-187500.015625,-187500.015625,-187500.015625,0.0
616,1592874742.338744,-167611.5,-170115.1875,-170839.078125,-167438.75,-187500.015625,-187500.015625,-187500.015625,-187500.015625,0.0
617,1592874742.338745,-167011.375,-170103.046875,-170830.578125,-167426.203125,-187500.015625,-187500.015625,-187500.015625,-187500.015625,0.0
618,1592874742.338746,-166407.21875,-170095.0,-170825.59375,-167417.671875,-187500.015625,-187500.015625,-187500.015625,-187500.015625,0.0
619,1592874742.338747,-166924.4375,-170100.65625,-170827.625,-167423.359375,-187500.015625,-187500.015625,-187500.015625,-187500.015625,0.0
620,1592874742.338748,-167594.140625,-170106.453125,-170829.546875,-167429.171875,-187500.015625,-187500.015625,-187500.015625,-187500.015625,0.0
621,1592874742.338749,-167156.171875,-170097.078125,-170823.0,-167419.546875,-187500.015625,-187500.015625,-187500.015625,-187500.015625,0.0
622,1592874742.33875,-166426.03125,-170085.90625,-170815.671875,-167407.9375,-187500.015625,-187500.015625,-187500.015625,-187500.015625,0.0
623,1592874742.338751,-166758.09375,-170086.171875,-170813.328125,-167408.234375,-187500.015625,-187500.015625,-187500.015625,-187500.015625,0.0
624,1592874742.338752,-167531.953125,-170093.171875,-170815.671875,-167415.28125,-187500.015625,-187500.015625,-187500.015625,-187500.015625,0.0
625,1592874742.338753,-167285.25,-170084.765625,-170808.984375,-167406.734375,-187500.015625,-187500.015625,-187500.015625,-187500.015625,0.0
626,1592874742.338754,-166479.453125,-170070.75,-170799.375,-167392.25,-187500.015625,-187500.015625,-187500.015625,-187500.015625,0.0
627,1592874742.338755,-166608.125,-170070.546875,-170797.921875,-167391.890625,-187500.015625,-187500.015625,-187500.015625,-187500.015625,0.0
628,1592874742.338756,-167425.890625,-170075.453125,-170797.671875,-167396.859375,-187500.015625,-187500.015625,-187500.015625,-187500.015625,0.0
629,1592874742.398976,-167389.59375,-170070.53125,-170793.140625,-167391.84375,-187500.015625,-187500.015625,-187500.015625,-187500.015625,0.0
630,1592874742.398978,-166570.6875,-170058.96875,-170786.25,-167379.84375,-187500.015625,-187500.015625,-187500.015625,-187500.015625,0.0
631,1592874742.398979,-166489.359375,-170061.5,-170788.71875,-167382.171875,-187500.015625,-187500.015625,-187500.015625,-187500.015625,0.0
632,1592874742.39898,-167298.59375,-170068.625,-170790.8125,-167389.4375,-187500.015625,-187500.015625,-187500.015625,-187500.015625,0.0
633,1592874742.398981,-167478.9375,-170065.96875,-170787.234375,-167386.640625,-187500.015625,-187500.015625,-187500.015625,-187500.015625,0.0
634,1592874742.398982,-166698.125,-170054.796875,-170780.515625,-167374.9375,-187500.015625,-187500.015625,-187500.015625,-187500.015625,0.0
635,1592874742.398983,-166398.40625,-170047.9375,-170774.859375,-167367.890625,-187500.015625,-187500.015625,-187500.015625,-187500.015625,0.0
636,1592874742.398988,-167140.59375,-170054.375,-170776.625,-167374.5,-187500.015625,-187500.015625,-187500.015625,-187500.015625,0.0
637,1592874742.398989,-167525.515625,-170054.5625,-170774.65625,-167374.703125,-187500.015625,-187500.015625,-187500.015625,-187500.015625,0.0
638,1592874742.39899,-166833.171875,-170042.484375,-170766.5625,-167362.078125,-187500.015625,-187500.015625,-187500.015625,-187500.015625,0.0
639,1592874742.398991,-166343.0,-170033.734375,-170760.265625,-167353.078125,-187500.015625,-187500.015625,-187500.015625,-187500.015625,0.0
640,1592874742.398992,-166969.65625,-170039.921875,-170762.3125,-167359.390625,-187500.015625,-187500.015625,-187500.015625,-187500.015625,0.0
641,1592874742.398993,-167535.859375,-170042.640625,-170761.640625,-167362.03125,-187500.015625,-187500.015625,-187500.015625,-187500.015625,0.0
642,1592874742.398994,-166977.03125,-170030.40625,-170752.84375,-167349.5,-187500.015625,-187500.015625,-187500.015625,-187500.015625,0.0
643,1592874742.398995,-166325.34375,-170016.453125,-170742.328125,-167335.171875,-187500.015625,-187500.015625,-187500.015625,-187500.015625,0.0
644,1592874742.459313,-166792.6875,-170020.234375,-170742.78125,-167338.90625,-187500.015625,-187500.015625,-187500.015625,-187500.015625,0.0
645,1592874742.459316,-167499.078125,-170026.546875,-170744.96875,-167345.359375,-187500.015625,-187500.015625,-187500.015625,-187500.015625,0.0
646,1592874742.459317,-167116.125,-170020.640625,-170741.453125,-167339.140625,-187500.015625,-187500.015625,-187500.015625,-187500.015625,0.0
647,1592874742.459318,-166359.71875,-170010.25,-170735.09375,-167328.296875,-187500.015625,-187500.015625,-187500.015625,-187500.015625,0.0
648,1592874742.459319,-166637.765625,-170012.59375,-170735.265625,-167330.71875,-187500.015625,-187500.015625,-187500.015625,-187500.015625,0.0
649,1592874742.45932,-167432.546875,-170020.484375,-170738.390625,-167338.703125,-187500.015625,-187500.015625,-187500.015625,-187500.015625,0.0
650,1592874742.459321,-167245.953125,-170013.703125,-170732.90625,-167331.765625,-187500.015625,-187500.015625,-187500.015625,-187500.015625,0.0
651,1592874742.459322,-166429.9375,-170000.65625,-170724.421875,-167318.25,-187500.015625,-187500.015625,-187500.015625,-187500.015625,0.0
652,1592874742.459323,-166495.25,-169998.171875,-170721.03125,-167315.71875,-187500.015625,-187500.015625,-187500.015625,-187500.015625,0.0
653,1592874742.459324,-167317.625,-170003.828125,-170721.671875,-167321.515625,-187500.015625,-187500.015625,-187500.015625,-187500.015625,0.0
654,1592874742.459325,-167345.609375,-170001.078125,-170718.859375,-167318.46875,-187500.015625,-187500.015625,-187500.015625,-187500.015625,0.0
655,1592874742.459326,-166531.84375,-169989.859375,-170712.21875,-167306.734375,-187500.015625,-187500.015625,-187500.015625,-187500.015625,0.0
656,1592874742.459327,-166382.921875,-169986.21875,-170708.796875,-167302.953125,-187500.015625,-187500.015625,-187500.015625,-187500.015625,0.0
657,1592874742.459328,-167179.0,-169993.453125,-170710.953125,-167310.265625,-187500.015625,-187500.015625,-187500.015625,-187500.015625,0.0
658,1592874742.459329,-167422.3125,-169994.546875,-170710.890625,-167311.25,-187500.015625,-187500.015625,-187500.015625,-187500.015625,0.0
659,1592874742.518123,-166661.21875,-169982.375,-170703.28125,-167298.703125,-187500.015625,-187500.015625,-187500.015625,-187500.015625,0.0
660,1592874742.518126,-166303.609375,-169974.296875,-170696.734375,-167290.421875,-187500.015625,-187500.015625,-187500.015625,-187500.015625,0.0
661,1592874742.518127,-167019.140625,-169982.21875,-170700.046875,-167298.421875,-187500.015625,-187500.015625,-187500.015625,-187500.015625,0.0
662,1592874742.518128,-167463.640625,-169987.15625,-170702.484375,-167303.265625,-187500.015625,-187500.015625,-187500.015625,-187500.015625,0.0
663,1592874742.518129,-166805.390625,-169975.421875,-170694.703125,-167291.15625,-187500.015625,-187500.015625,-187500.015625,-187500.015625,0.0
664,1592874742.51813,-166264.9375,-169964.265625,-170686.25,-167279.75,-187500.015625,-187500.015625,-187500.015625,-187500.015625,0.0
665,1592874742.518131,-166849.578125,-169969.234375,-170687.1875,-167284.8125,-187500.015625,-187500.015625,-187500.015625,-187500.015625,0.0
666,1592874742.518132,-167457.5625,-169971.578125,-170686.03125,-167287.046875,-187500.015625,-187500.015625,-187500.015625,-187500.015625,0.0
667,1592874742.518133,-166944.96875,-169961.203125,-170678.734375,-167276.265625,-187500.015625,-187500.015625,-187500.015625,-187500.015625,0.0
668,1592874742.518134,-166259.625,-169949.21875,-170670.34375,-167263.953125,-187500.015625,-187500.015625,-187500.015625,-187500.015625,0.0
669,1592874742.518135,-166678.453125,-169955.265625,-170673.46875,-167269.921875,-187500.015625,-187500.015625,-187500.015625,-187500.015625,0.0
670,1592874742.518136,-167414.890625,-169961.3125,-170675.09375,-167276.0,-187500.015625,-187500.015625,-187500.015625,-187500.015625,0.0
671,1592874742.518137,-167085.0,-169954.8125,-170670.609375,-167269.25,-187500.015625,-187500.015625,-187500.015625,-187500.015625,0.0
672,1592874742.518138,-166304.65625,-169941.53125,-170661.640625,-167255.5,-187500.015625,-187500.015625,-187500.015625,-187500.015625,0.0
673,1592874742.518139,-166522.875,-169940.890625,-170659.109375,-167254.875,-187500.015625,-187500.015625,-187500.015625,-187500.015625,0.0
674,1592874742.578422,-167328.703125,-169946.984375,-170660.375,-167261.25,-187500.015625,-187500.015625,-187500.015625,-187500.015625,0.0
675,1592874742.578425,-167201.03125,-169941.375,-170655.8125,-167255.328125,-187500.015625,-187500.015625,-187500.015625,-187500.015625,0.0
676,1592874742.578426,-166381.28125,-169929.84375,-170648.828125,-167243.28125,-187500.015625,-187500.015625,-187500.015625,-187500.015625,0.0
677,1592874742.578427,-166387.359375,-169928.703125,-170646.984375,-167241.921875,-187500.015625,-187500.015625,-187500.015625,-187500.015625,0.0
678,1592874742.578428,-167210.40625,-169937.3125,-170650.5625,-167250.8125,-187500.015625,-187500.015625,-187500.015625,-187500.015625,0.0
679,1592874742.578429,-167300.828125,-169936.734375,-170649.578125,-167250.03125,-187500.015625,-187500.015625,-187500.015625,-187500.015625,0.0
680,1592874742.57843,-166494.0,-169922.21875,-170639.609375,-167234.9375,-187500.015625,-187500.015625,-187500.015625,-187500.015625,0.0
681,1592874742.578431,-166285.15625,-169916.546875,-170634.78125,-167229.171875,-187500.015625,-187500.015625,-187500.015625,-187500.015625,0.0
682,1592874742.578436,-167063.796875,-169925.171875,-170638.390625,-167237.84375,-187500.015625,-187500.015625,-187500.015625,-187500.015625,0.0
683,1592874742.578437,-167363.640625,-169925.671875,-170637.328125,-167238.359375,-187500.015625,-187500.015625,-187500.015625,-187500.015625,0.0
684,1592874742.578438,-166625.859375,-169912.40625,-170628.5,-167224.859375,-187500.015625,-187500.015625,-187500.015625,-187500.015625,0.0
685,1592874742.578439,-166214.546875,-169905.1875,-170623.0,-167217.171875,-187500.015625,-187500.015625,-187500.015625,-187500.015625,0.0
686,1592874742.57844,-166895.578125,-169910.5625,-170623.875,-167222.53125,-187500.015625,-187500.015625,-187500.015625,-187500.015625,0.0
687,1592874742.578441,-167389.234375,-169913.421875,-170623.875,-167225.375,-187500.015625,-187500.015625,-187500.015625,-187500.015625,0.0
688,1592874742.578442,-166767.8125,-169901.21875,-170615.359375,-167212.8125,-187500.015625,-187500.015625,-187500.015625,-187500.015625,0.0
689,1592874742.639043,-166183.515625,-169891.890625,-170609.140625,-167203.25,-187500.015625,-187500.015625,-187500.015625,-187500.015625,0.0
690,1592874742.639046,-166723.84375,-169896.546875,-170610.171875,-167207.9375,-187500.015625,-187500.015625,-187500.015625,-187500.015625,0.0
691,1592874742.639052,-167373.28125,-169899.625,-170609.421875,-167211.0625,-187500.015625,-187500.015625,-187500.015625,-187500.015625,0.0
692,1592874742.639053,-166909.4375,-169889.609375,-170602.234375,-167200.703125,-187500.015625,-187500.015625,-187500.015625,-187500.015625,0.0
693,1592874742.639054,-166193.90625,-169878.375,-170594.859375,-167189.125,-187500.015625,-187500.015625,-187500.015625,-187500.015625,0.0
694,1592874742.639055,-166557.078125,-169881.796875,-170595.546875,-167192.625,-187500.015625,-187500.015625,-187500.015625,-187500.015625,0.0
695,1592874742.639056,-167319.859375,-169889.09375,-170598.296875,-167199.953125,-187500.015625,-187500.015625,-187500.015625,-187500.015625,0.0
696,1592874742.639057,-167042.671875,-169879.375,-170590.265625,-167189.828125,-187500.015625,-187500.015625,-187500.015625,-187500.015625,0.0
697,1592874742.639058,-166248.09375,-169867.8125,-170583.234375,-167177.875,-187500.015625,-187500.015625,-187500.015625,-187500.015625,0.0
698,1592874742.639059,-166409.015625,-169869.46875,-170583.296875,-167179.484375,-187500.015625,-187500.015625,-187500.015625,-187500.015625,0.0
699,1592874742.63906,-167223.28125,-169875.078125,-170583.90625,-167185.25,-187500.015625,-187500.015625,-187500.015625,-187500.015625,0.0
700,1592874742.639061,-167153.40625,-169866.296875,-170575.671875,-167176.21875,-187500.015625,-187500.015625,-187500.015625,-187500.015625,0.0
701,1592874742.639063,-166333.671875,-169854.546875,-170568.5,-167163.9375,-187500.015625,-187500.015625,-187500.015625,-187500.015625,0.0
702,1592874742.639064,-166281.6875,-169857.0,-170570.71875,-167166.328125,-187500.015625,-187500.015625,-187500.015625,-187500.015625,0.0
703,1592874742.639065,-167097.546875,-169866.484375,-170575.125,-167175.9375,-187500.015625,-187500.015625,-187500.015625,-187500.015625,0.0
704,1592874742.699634,-167247.640625,-169863.859375,-170571.828125,-167173.109375,-187500.015625,-187500.015625,-187500.015625,-187500.015625,0.0
705,1592874742.699641,-166457.03125,-169849.84375,-170562.28125,-167158.703125,-187500.015625,-187500.015625,-187500.015625,-187500.015625,0.0
706,1592874742.699642,-166185.8125,-169840.78125,-170554.25,-167149.40625,-187500.015625,-187500.015625,-187500.015625,-187500.015625,0.0
707,1592874742.699643,-166938.28125,-169846.40625,-170555.03125,-167155.078125,-187500.015625,-187500.015625,-187500.015625,-187500.015625,0.0
708,1592874742.699644,-167298.265625,-169849.921875,-170556.515625,-167158.5,-187500.015625,-187500.015625,-187500.015625,-187500.015625,0.0
709,1592874742.699645,-166589.875,-169836.421875,-170547.09375,-167144.5,-187500.015625,-187500.015625,-187500.015625,-187500.015625,0.0
710,1592874742.699646,-166124.0625,-169826.359375,-170539.375,-167134.359375,-187500.015625,-187500.015625,-187500.015625,-187500.015625,0.0
711,1592874742.699647,-166769.3125,-169832.953125,-170541.765625,-167141.046875,-187500.015625,-187500.015625,-187500.015625,-187500.015625,0.0
712,1592874742.699648,-167313.421875,-169838.109375,-170543.78125,-167146.25,-187500.015625,-187500.015625,-187500.015625,-187500.015625,0.0
713,1592874742.699649,-166730.6875,-169822.78125,-170531.890625,-167130.53125,-187500.015625,-187500.015625,-187500.015625,-187500.015625,0.0
714,1592874742.69965,-166105.078125,-169812.4375,-170524.828125,-167119.828125,-187500.015625,-187500.015625,-187500.015625,-187500.015625,0.0
715,1592874742.699651,-166599.296875,-169818.953125,-170527.984375,-167126.421875,-187500.015625,-187500.015625,-187500.015625,-187500.015625,0.0
716,1592874742.699653,-167287.578125,-169825.546875,-170530.484375,-167133.125,-187500.015625,-187500.015625,-187500.015625,-187500.015625,0.0
717,1592874742.699654,-166877.578125,-169818.171875,-170525.609375,-167125.265625,-187500.015625,-187500.015625,-187500.015625,-187500.015625,0.0
718,1592874742.699655,-166130.46875,-169803.421875,-170514.921875,-167109.96875,-187500.015625,-187500.015625,-187500.015625,-187500.015625,0.0
719,1592874742.758358,-166435.390625,-169805.015625,-170514.078125,-167111.671875,-187500.015625,-187500.015625,-187500.015625,-187500.015625,0.0
720,1592874742.758361,-167221.375,-169814.640625,-170519.0,-167121.484375,-187500.015625,-187500.015625,-187500.015625,-187500.015625,0.0
721,1592874742.758362,-167003.875,-169806.796875,-170512.671875,-167113.4375,-187500.015625,-187500.015625,-187500.015625,-187500.015625,0.0
722,1592874742.758363,-166195.546875,-169794.3125,-170504.671875,-167100.390625,-187500.015625,-187500.015625,-187500.015625,-187500.015625,0.0
723,1592874742.758364,-166291.671875,-169791.984375,-170501.0625,-167097.90625,-187500.015625,-187500.015625,-187500.015625,-187500.015625,0.0
724,1592874742.758365,-167112.828125,-169798.859375,-170502.96875,-167104.9375,-187500.015625,-187500.015625,-187500.015625,-187500.015625,0.0
725,1592874742.758366,-167111.9375,-169798.171875,-170502.609375,-167104.140625,-187500.015625,-187500.015625,-187500.015625,-187500.015625,0.0
726,1592874742.758367,-166292.875,-169783.3125,-170492.46875,-167088.8125,-187500.015625,-187500.015625,-187500.015625,-187500.015625,0.0
727,1592874742.758368,-166175.53125,-169780.296875,-170489.4375,-167085.5625,-187500.015625,-187500.015625,-187500.015625,-187500.015625,0.0
728,1592874742.758369,-166980.15625,-169789.96875,-170494.09375,-167095.421875,-187500.015625,-187500.015625,-187500.015625,-187500.015625,0.0
729,1592874742.758376,-167190.125,-169788.03125,-170491.140625,-167093.40625,-187500.015625,-187500.015625,-187500.015625,-187500.015625,0.0
730,1592874742.758377,-166417.53125,-169773.46875,-170480.90625,-167078.390625,-187500.015625,-187500.015625,-187500.015625,-187500.015625,0.0
731,1592874742.758378,-166092.140625,-169766.90625,-170475.71875,-167071.5,-187500.015625,-187500.015625,-187500.015625,-187500.015625,0.0
732,1592874742.758379,-166821.28125,-169775.171875,-170479.296875,-167079.859375,-187500.015625,-187500.015625,-187500.015625,-187500.015625,0.0
733,1592874742.75838,-167236.015625,-169779.0,-170480.84375,-167083.578125,-187500.015625,-187500.015625,-187500.015625,-187500.015625,0.0
734,1592874742.758381,-166563.25,-169769.109375,-170474.890625,-167073.265625,-187500.015625,-187500.015625,-187500.015625,-187500.015625,0.0
735,1592874742.819104,-166045.828125,-169756.734375,-170465.109375,-167060.625,-187500.015625,-187500.015625,-187500.015625,-187500.015625,0.0
736,1592874742.819105,-166650.59375,-169761.875,-170466.21875,-167065.875,-187500.015625,-187500.015625,-187500.015625,-187500.015625,0.0
737,1592874742.819106,-167239.234375,-169766.546875,-170467.5,-167070.5625,-187500.015625,-187500.015625,-187500.015625,-187500.015625,0.0
738,1592874742.819107,-166704.109375,-169755.546875,-170459.6875,-167059.03125,-187500.015625,-187500.015625,-187500.015625,-187500.015625,0.0
739,1592874742.819108,-166039.28125,-169744.46875,-170452.203125,-167047.640625,-187500.015625,-187500.015625,-187500.015625,-187500.015625,0.0
740,1592874742.819109,-166481.171875,-169748.015625,-170452.71875,-167051.203125,-187500.015625,-187500.015625,-187500.015625,-187500.015625,0.0
741,1592874742.81911,-167200.96875,-169753.625,-170453.96875,-167056.859375,-187500.015625,-187500.015625,-187500.015625,-187500.015625,0.0
742,1592874742.819111,-166843.359375,-169746.0,-170448.5625,-167049.09375,-187500.015625,-187500.015625,-187500.015625,-187500.015625,0.0
743,1592874742.819112,-166075.890625,-169734.296875,-170441.078125,-167036.96875,-187500.015625,-187500.015625,-187500.015625,-187500.015625,0.0
744,1592874742.819113,-166322.953125,-169734.171875,-170438.84375,-167036.84375,-187500.015625,-187500.015625,-187500.015625,-187500.015625,0.0
745,1592874742.819114,-167124.328125,-169742.578125,-170442.34375,-167045.328125,-187500.015625,-187500.015625,-187500.015625,-187500.015625,0.0
746,1592874742.819115,-166967.84375,-169737.6875,-170438.578125,-167040.25,-187500.015625,-187500.015625,-187500.015625,-187500.015625,0.0
747,1592874742.819116,-166149.265625,-169723.140625,-170428.609375,-167025.125,-187500.015625,-187500.015625,-187500.015625,-187500.015625,0.0
748,1592874742.819117,-166188.703125,-169723.703125,-170428.375,-167025.546875,-187500.015625,-187500.015625,-187500.015625,-187500.015625,0.0
749,1592874742.819118,-167010.375,-169730.890625,-170430.328125,-167032.8125,-187500.015625,-187500.015625,-187500.015625,-187500.015625,0.0
750,1592874742.879376,-167065.890625,-169726.828125,-170426.21875,-167028.75,-187500.015625,-187500.015625,-187500.015625,-187500.015625,0.0
751,1592874742.879379,-166253.609375,-169711.40625,-170415.375,-167012.765625,-187500.015625,-187500.015625,-187500.015625,-187500.015625,0.0
752,1592874742.879384,-166074.3125,-169705.796875,-170410.34375,-167007.0625,-187500.015625,-187500.015625,-187500.015625,-187500.015625,0.0
753,1592874742.879385,-166861.375,-169713.1875,-170412.734375,-167014.625,-187500.015625,-187500.015625,-187500.015625,-187500.015625,0.0
754,1592874742.879386,-167133.078125,-169715.1875,-170413.1875,-167016.359375,-187500.015625,-187500.015625,-187500.015625,-187500.015625,0.0
755,1592874742.879387,-166383.984375,-169702.578125,-170404.953125,-167003.21875,-187500.015625,-187500.015625,-187500.015625,-187500.015625,0.0
756,1592874742.879388,-166002.28125,-169696.15625,-170400.34375,-166996.5,-187500.015625,-187500.015625,-187500.015625,-187500.015625,0.0
757,1592874742.879389,-166702.75,-169705.015625,-170404.703125,-167005.546875,-187500.015625,-187500.015625,-187500.015625,-187500.015625,0.0
758,1592874742.87939,-167169.078125,-169707.78125,-170404.796875,-167008.359375,-187500.015625,-187500.015625,-187500.015625,-187500.015625,0.0
759,1592874742.879391,-166528.15625,-169694.59375,-170395.484375,-166994.890625,-187500.015625,-187500.015625,-187500.015625,-187500.015625,0.0
760,1592874742.879392,-165966.84375,-169684.625,-170388.265625,-166984.484375,-187500.015625,-187500.015625,-187500.015625,-187500.015625,0.0
761,1592874742.879393,-166531.109375,-169691.171875,-170390.96875,-166991.046875,-187500.015625,-187500.015625,-187500.015625,-187500.015625,0.0
762,1592874742.879394,-167163.453125,-169698.140625,-170394.3125,-166998.078125,-187500.015625,-187500.015625,-187500.015625,-187500.015625,0.0
763,1592874742.879395,-166674.921875,-169687.828125,-170387.03125,-166987.390625,-187500.015625,-187500.015625,-187500.015625,-187500.015625,0.0
764,1592874742.879396,-165975.890625,-169676.59375,-170379.578125,-166975.84375,-187500.015625,-187500.015625,-187500.015625,-187500.015625,0.0
765,1592874742.938849,-166365.53125,-169679.390625,-170379.46875,-166978.640625,-187500.015625,-187500.015625,-187500.015625,-187500.015625,0.0
766,1592874742.938852,-167114.125,-169685.15625,-170380.546875,-166984.375,-187500.015625,-187500.015625,-187500.015625,-187500.015625,0.0
767,1592874742.938853,-166813.03125,-169679.28125,-170376.59375,-166978.234375,-187500.015625,-187500.015625,-187500.015625,-187500.015625,0.0
768,1592874742.938854,-166025.203125,-169668.125,-170369.8125,-166966.609375,-187500.015625,-187500.015625,-187500.015625,-187500.015625,0.0
769,1592874742.938855,-166214.390625,-169668.171875,-170368.1875,-166966.59375,-187500.015625,-187500.015625,-187500.015625,-187500.015625,0.0
770,1592874742.938856,-167023.984375,-169672.84375,-170367.984375,-166971.484375,-187500.015625,-187500.015625,-187500.015625,-187500.015625,0.0
771,1592874742.938857,-166924.09375,-169665.6875,-170361.5,-166964.015625,-187500.015625,-187500.015625,-187500.015625,-187500.015625,0.0
772,1592874742.938858,-166101.375,-169650.609375,-170351.15625,-166948.59375,-187500.015625,-187500.015625,-187500.015625,-187500.015625,0.0
773,1592874742.938859,-166075.84375,-169646.828125,-170346.90625,-166944.6875,-187500.015625,-187500.015625,-187500.015625,-187500.015625,0.0
774,1592874742.93886,-166894.28125,-169654.8125,-170349.703125,-166952.765625,-187500.015625,-187500.015625,-187500.015625,-187500.015625,0.0
775,1592874742.938865,-167013.8125,-169653.109375,-170347.421875,-166950.921875,-187500.015625,-187500.015625,-187500.015625,-187500.015625,0.0
776,1592874742.938866,-166215.59375,-169640.171875,-170339.171875,-166937.5,-187500.015625,-187500.015625,-187500.015625,-187500.015625,0.0
777,1592874742.938867,-165974.125,-169632.234375,-170332.15625,-166929.328125,-187500.015625,-187500.015625,-187500.015625,-187500.015625,0.0
778,1592874742.938868,-166742.75,-169641.234375,-170336.25,-166938.453125,-187500.015625,-187500.015625,-187500.015625,-187500.015625,0.0
779,1592874742.938869,-167072.46875,-169643.125,-170336.21875,-166940.234375,-187500.015625,-187500.015625,-187500.015625,-187500.015625,0.0
780,1592874742.999111,-166347.953125,-169628.546875,-170325.921875,-166925.21875,-187500.015625,-187500.015625,-187500.015625,-187500.015625,0.0
781,1592874742.999114,-165911.546875,-169621.109375,-170320.59375,-166917.609375,-187500.015625,-187500.015625,-187500.015625,-187500.015625,0.0
782,1592874742.999115,-166580.03125,-169631.9375,-170327.15625,-166928.609375,-187500.015625,-187500.015625,-187500.015625,-187500.015625,0.0
783,1592874742.999116,-167098.484375,-169636.640625,-170328.875,-166933.375,-187500.015625,-187500.015625,-187500.015625,-187500.015625,0.0
784,1592874742.999117,-166496.375,-169623.421875,-170319.21875,-166919.71875,-187500.015625,-187500.015625,-187500.015625,-187500.015625,0.0
785,1592874742.999118,-165893.328125,-169615.359375,-170314.203125,-166911.15625,-187500.015625,-187500.015625,-187500.015625,-187500.015625,0.0
786,1592874742.999119,-166409.671875,-169619.8125,-170315.09375,-166915.609375,-187500.015625,-187500.015625,-187500.015625,-187500.015625,0.0
787,1592874742.99912,-167077.65625,-169624.34375,-170315.734375,-166920.203125,-187500.015625,-187500.015625,-187500.015625,-187500.015625,0.0
788,1592874742.999121,-166639.265625,-169614.9375,-170309.015625,-166910.4375,-187500.015625,-187500.015625,-187500.015625,-187500.015625,0.0
789,1592874742.999122,-165908.5,-169601.359375,-170299.40625,-166896.484375,-187500.015625,-187500.015625,-187500.015625,-187500.015625,0.0
790,1592874742.999123,-166244.09375,-169603.734375,-170299.203125,-166898.890625,-187500.015625,-187500.015625,-187500.015625,-187500.015625,0.0
791,1592874742.999124,-167016.984375,-169612.265625,-170303.046875,-166907.5625,-187500.015625,-187500.015625,-187500.015625,-187500.015625,0.0
792,1592874742.999125,-166770.140625,-169605.609375,-170297.9375,-166900.578125,-187500.015625,-187500.015625,-187500.015625,-187500.015625,0.0
793,1592874742.999126,-165966.125,-169591.171875,-170288.015625,-166885.671875,-187500.015625,-187500.015625,-187500.015625,-187500.015625,0.0
794,1592874742.999127,-166095.40625,-169590.453125,-170285.84375,-166884.75,-187500.015625,-187500.015625,-187500.015625,-187500.015625,0.0
795,1592874743.05918,-166913.953125,-169596.453125,-170286.890625,-166890.921875,-187500.015625,-187500.015625,-187500.015625,-187500.015625,0.0
796,1592874743.059182,-166878.671875,-169593.3125,-170284.125,-166887.546875,-187500.015625,-187500.015625,-187500.015625,-187500.015625,0.0
797,1592874743.059184,-166057.546875,-169578.078125,-170273.65625,-166871.90625,-187500.015625,-187500.015625,-187500.015625,-187500.015625,0.0
798,1592874743.059188,-165971.515625,-169573.203125,-170268.65625,-166866.921875,-187500.015625,-187500.015625,-187500.015625,-187500.015625,0.0
799,1592874743.059189,-166779.609375,-169581.0625,-170271.359375,-166874.9375,-187500.015625,-187500.015625,-187500.015625,-187500.015625,0.0
800,1592874743.05919,-166961.46875,-169583.265625,-170272.65625,-166877.015625,-187500.015625,-187500.015625,-187500.015625,-187500.015625,0.0
801,1592874743.059191,-166182.234375,-169572.421875,-170266.328125,-166865.71875,-187500.015625,-187500.015625,-187500.015625,-187500.015625,0.0
802,1592874743.059192,-165884.6875,-169565.21875,-170260.34375,-166858.109375,-187500.015625,-187500.015625,-187500.015625,-187500.015625,0.0
803,1592874743.059193,-166624.765625,-169569.6875,-170260.078125,-166862.734375,-187500.015625,-187500.015625,-187500.015625,-187500.015625,0.0
804,1592874743.059194,-167008.890625,-169570.625,-170258.890625,-166863.671875,-187500.015625,-187500.015625,-187500.015625,-187500.015625,0.0
805,1592874743.059195,-166317.6875,-169559.515625,-170251.734375,-166851.984375,-187500.015625,-187500.015625,-187500.015625,-187500.015625,0.0
806,1592874743.059197,-165833.578125,-169553.515625,-170248.109375,-166845.6875,-187500.015625,-187500.015625,-187500.015625,-187500.015625,0.0
807,1592874743.059198,-166460.078125,-169559.203125,-170249.71875,-166851.703125,-187500.015625,-187500.015625,-187500.015625,-187500.015625,0.0
808,1592874743.059199,-167023.65625,-169563.28125,-170250.5,-166855.75,-187500.015625,-187500.015625,-187500.015625,-187500.015625,0.0
809,1592874743.0592,-166465.140625,-169552.421875,-170242.875,-166844.453125,-187500.015625,-187500.015625,-187500.015625,-187500.015625,0.0
810,1592874743.118431,-165818.4375,-169540.1875,-170234.046875,-166831.8125,-187500.015625,-187500.015625,-187500.015625,-187500.015625,0.0
811,1592874743.118433,-166286.328125,-169543.359375,-170233.984375,-166834.984375,-187500.015625,-187500.015625,-187500.015625,-187500.015625,0.0
812,1592874743.118434,-166988.671875,-169548.1875,-170234.703125,-166839.875,-187500.015625,-187500.015625,-187500.015625,-187500.015625,0.0
813,1592874743.118435,-166602.796875,-169540.875,-170229.734375,-166832.125,-187500.015625,-187500.015625,-187500.015625,-187500.015625,0.0
814,1592874743.118436,-165845.375,-169526.734375,-170219.609375,-166817.4375,-187500.015625,-187500.015625,-187500.015625,-187500.015625,0.0
815,1592874743.118437,-166123.515625,-169527.015625,-170217.84375,-166817.921875,-187500.015625,-187500.015625,-187500.015625,-187500.015625,0.0
816,1592874743.118438,-166917.390625,-169536.671875,-170222.609375,-166827.6875,-187500.015625,-187500.015625,-187500.015625,-187500.015625,0.0
817,1592874743.118439,-166729.484375,-169531.5625,-170218.65625,-166822.1875,-187500.015625,-187500.015625,-187500.015625,-187500.015625,0.0
818,1592874743.11844,-165913.6875,-169515.765625,-170207.359375,-166806.09375,-187500.015625,-187500.015625,-187500.015625,-187500.015625,0.0
819,1592874743.118441,-165980.109375,-169511.640625,-170202.21875,-166801.8125,-187500.015625,-187500.015625,-187500.015625,-187500.015625,0.0
820,1592874743.118442,-166804.3125,-169520.78125,-170206.421875,-166811.046875,-187500.015625,-187500.015625,-187500.015625,-187500.015625,0.0
821,1592874743.118443,-166829.859375,-169518.1875,-170203.859375,-166808.203125,-187500.015625,-187500.015625,-187500.015625,-187500.015625,0.0
822,1592874743.118448,-166018.046875,-169507.171875,-170197.515625,-166796.796875,-187500.015625,-187500.015625,-187500.015625,-187500.015625,0.0
823,1592874743.118449,-165873.15625,-169503.125,-170193.75,-166792.734375,-187500.015625,-187500.015625,-187500.015625,-187500.015625,0.0
824,1592874743.11845,-166667.828125,-169510.578125,-170196.09375,-166800.265625,-187500.015625,-187500.015625,-187500.015625,-187500.015625,0.0
825,1592874743.180574,-166903.984375,-169508.5,-170192.640625,-166797.96875,-187500.015625,-187500.015625,-187500.015625,-187500.015625,0.0
826,1592874743.180577,-166143.4375,-169496.328125,-170184.96875,-166785.265625,-187500.015625,-187500.015625,-187500.015625,-187500.015625,0.0
827,1592874743.180578,-165788.296875,-169487.375,-170177.59375,-166776.03125,-187500.015625,-187500.015625,-187500.015625,-187500.015625,0.0
828,1592874743.180579,-166502.609375,-169493.765625,-170179.53125,-166782.65625,-187500.015625,-187500.015625,-187500.015625,-187500.015625,0.0
829,1592874743.18058,-166943.203125,-169498.140625,-170181.421875,-166787.078125,-187500.015625,-187500.015625,-187500.015625,-187500.015625,0.0
830,1592874743.180581,-166286.28125,-169488.21875,-170175.359375,-166776.65625,-187500.015625,-187500.015625,-187500.015625,-187500.015625,0.0
831,1592874743.180582,-165749.953125,-169477.875,-170167.578125,-166765.984375,-187500.015625,-187500.015625,-187500.015625,-187500.015625,0.0
832,1592874743.180583,-166335.171875,-169482.234375,-170168.046875,-166770.578125,-187500.015625,-187500.015625,-187500.015625,-187500.015625,0.0
833,1592874743.180584,-166941.078125,-169485.40625,-170167.71875,-166773.828125,-187500.015625,-187500.015625,-187500.015625,-187500.015625,0.0
834,1592874743.180585,-166428.0625,-169475.546875,-170160.859375,-166763.546875,-187500.015625,-187500.015625,-187500.015625,-187500.015625,0.0
835,1592874743.180586,-165748.171875,-169465.828125,-170154.90625,-166753.421875,-187500.015625,-187500.015625,-187500.015625,-187500.015625,0.0
836,1592874743.180587,-166167.71875,-169470.984375,-170157.078125,-166758.53125,-187500.015625,-187500.015625,-187500.015625,-187500.015625,0.0
837,1592874743.180588,-166900.5625,-169476.203125,-170157.859375,-166763.90625,-187500.015625,-187500.015625,-187500.015625,-187500.015625,0.0
838,1592874743.180589,-166565.484375,-169466.34375,-170150.09375,-166753.65625,-187500.015625,-187500.015625,-187500.015625,-187500.015625,0.0
839,1592874743.18059,-165787.90625,-169452.96875,-170140.9375,-166739.890625,-187500.015625,-187500.015625,-187500.015625,-187500.015625,0.0
840,1592874743.239354,-166012.296875,-169455.96875,-170141.875,-166742.796875,-187500.015625,-187500.015625,-187500.015625,-187500.015625,0.0
841,1592874743.239357,-166819.53125,-169465.359375,-170146.5,-166752.375,-187500.015625,-187500.015625,-187500.015625,-187500.015625,0.0
842,1592874743.239358,-166692.28125,-169462.8125,-170144.875,-166749.546875,-187500.015625,-187500.015625,-187500.015625,-187500.015625,0.0
843,1592874743.239359,-165871.03125,-169447.671875,-170134.40625,-166734.0,-187500.015625,-187500.015625,-187500.015625,-187500.015625,0.0
844,1592874743.23936,-165876.109375,-169442.4375,-170128.546875,-166728.578125,-187500.015625,-187500.015625,-187500.015625,-187500.015625,0.0
